XLabel,Wavenumber
YLabel,Absorbance
FileType,Absorbance
DisplayDirection,20300
PeakDirection,20312
898.826141,-0.001941
900.754953,-0.000721
902.683764,0.000207
904.612576,0.000368
906.541387,0.000571
908.470199,0.000134
910.399010,-0.000185
912.327822,0.000543
914.256633,0.000634
916.185445,-0.000117
918.114256,-0.000389
920.043068,-0.000584
921.971879,-0.000454
923.900690,0.000372
925.829502,0.000756
927.758313,0.000295
929.687125,-0.000102
931.615936,-0.000145
933.544748,-0.000184
935.473559,-0.000076
937.402371,0.000607
939.331182,0.001111
941.259994,0.000711
943.188805,0.000140
945.117617,0.000142
947.046428,0.000449
948.975240,0.000479
950.904051,0.000255
952.832862,0.000240
954.761674,0.000450
956.690485,0.000450
958.619297,0.000256
960.548108,0.000261
962.476920,0.000260
964.405731,0.000015
966.334543,-0.000152
968.263354,-0.000134
970.192166,0.000090
972.120977,0.000401
974.049789,0.000400
975.978600,0.000236
977.907411,0.000045
979.836223,-0.000172
981.765034,-0.000125
983.693846,-0.000014
985.622657,-0.000068
987.551469,-0.000102
989.480280,-0.000072
991.409092,0.000067
993.337903,0.000147
995.266715,-0.000027
997.195526,-0.000185
999.124338,-0.000231
1001.053149,-0.000268
1002.981960,-0.000177
1004.910772,-0.000020
1006.839583,0.000030
1008.768395,0.000029
1010.697206,0.000026
1012.626018,-0.000053
1014.554829,-0.000195
1016.483641,-0.000229
1018.412452,-0.000142
1020.341264,-0.000184
1022.270075,-0.000254
1024.198887,-0.000147
1026.127698,-0.000129
1028.056509,-0.000161
1029.985321,-0.000055
1031.914132,-0.000066
1033.842944,-0.000085
1035.771755,0.000031
1037.700567,0.000020
1039.629378,0.000008
1041.558190,0.000084
1043.487001,0.000060
1045.415813,0.000043
1047.344624,0.000055
1049.273436,0.000009
1051.202247,-0.000008
1053.131058,-0.000028
1055.059870,-0.000128
1056.988681,-0.000230
1058.917493,-0.000226
1060.846304,-0.000171
1062.775116,-0.000183
1064.703927,-0.000175
1066.632739,-0.000071
1068.561550,0.000016
1070.490362,-0.000008
1072.419173,-0.000072
1074.347985,-0.000061
1076.276796,-0.000025
1078.205607,-0.000004
1080.134419,0.000022
1082.063230,0.000034
1083.992042,0.000031
1085.920853,-0.000009
1087.849665,-0.000048
1089.778476,-0.000087
1091.707288,-0.000118
1093.636099,0.000007
1095.564911,0.000140
1097.493722,0.000115
1099.422534,0.000119
1101.351345,0.000127
1103.280156,0.000064
1105.208968,0.000022
1107.137779,-0.000010
1109.066591,0.000041
1110.995402,0.000123
1112.924214,0.000084
1114.853025,0.000066
1116.781837,0.000102
1118.710648,0.000115
1120.639460,0.000141
1122.568271,0.000131
1124.497083,0.000146
1126.425894,0.000209
1128.354706,0.000209
1130.283517,0.000153
1132.212328,0.000098
1134.141140,0.000047
1136.069951,0.000033
1137.998763,0.000028
1139.927574,0.000024
1141.856386,-0.000004
1143.785197,-0.000061
1145.714009,-0.000104
1147.642820,-0.000138
1149.571632,-0.000083
1151.500443,-0.000008
1153.429255,-0.000063
1155.358066,-0.000089
1157.286877,-0.000031
1159.215689,-0.000027
1161.144500,-0.000038
1163.073312,-0.000035
1165.002123,-0.000035
1166.930935,-0.000004
1168.859746,0.000026
1170.788558,0.000007
1172.717369,-0.000083
1174.646181,-0.000165
1176.574992,-0.000133
1178.503804,-0.000052
1180.432615,0.000009
1182.361426,-0.000027
1184.290238,-0.000145
1186.219049,-0.000153
1188.147861,-0.000107
1190.076672,-0.000077
1192.005484,0.000004
1193.934295,0.000010
1195.863107,-0.000050
1197.791918,-0.000051
1199.720730,-0.000079
1201.649541,-0.000138
1203.578353,-0.000153
1205.507164,-0.000153
1207.435975,-0.000139
1209.364787,-0.000076
1211.293598,0.000004
1213.222410,-0.000029
1215.151221,-0.000021
1217.080033,0.000134
1219.008844,0.000227
1220.937656,0.000304
1222.866467,0.000424
1224.795279,0.000548
1226.724090,0.000812
1228.652902,0.001169
1230.581713,0.001508
1232.510524,0.001927
1234.439336,0.002454
1236.368147,0.003066
1238.296959,0.003735
1240.225770,0.004302
1242.154582,0.004952
1244.083393,0.005802
1246.012205,0.006537
1247.941016,0.007183
1249.869828,0.007775
1251.798639,0.008128
1253.727451,0.007741
1255.656262,0.006848
1257.585073,0.006121
1259.513885,0.005511
1261.442696,0.007026
1263.371508,0.009691
1265.300319,0.008776
1267.229131,0.006676
1269.157942,0.007097
1271.086754,0.008164
1273.015565,0.008719
1274.944377,0.008900
1276.873188,0.008612
1278.802000,0.008124
1280.730811,0.007597
1282.659622,0.006919
1284.588434,0.006053
1286.517245,0.005290
1288.446057,0.004632
1290.374868,0.004064
1292.303680,0.003576
1294.232491,0.003093
1296.161303,0.002850
1298.090114,0.002751
1300.018926,0.002666
1301.947737,0.002640
1303.876549,0.002535
1305.805360,0.002403
1307.734172,0.002389
1309.662983,0.002402
1311.591794,0.002289
1313.520606,0.002124
1315.449417,0.001961
1317.378229,0.001707
1319.307040,0.001482
1321.235852,0.001444
1323.164663,0.001479
1325.093475,0.001405
1327.022286,0.001232
1328.951098,0.001056
1330.879909,0.000898
1332.808721,0.000756
1334.737532,0.000607
1336.666343,0.000313
1338.595155,0.000002
1340.523966,0.000053
1342.452778,0.000199
1344.381589,0.000228
1346.310401,0.000264
1348.239212,0.000254
1350.168024,0.000202
1352.096835,0.000137
1354.025647,0.000020
1355.954458,0.000016
1357.883270,0.000048
1359.812081,-0.000203
1361.740892,-0.000567
1363.669704,-0.000397
1365.598515,0.000136
1367.527327,0.000328
1369.456138,0.000384
1371.384950,0.000319
1373.313761,-0.000100
1375.242573,-0.000069
1377.171384,0.000494
1379.100196,0.000791
1381.029007,0.000916
1382.957819,0.001113
1384.886630,0.000982
1386.815441,0.000549
1388.744253,0.000811
1390.673064,0.001411
1392.601876,0.001050
1394.530687,0.000454
1396.459499,0.000537
1398.388310,0.000648
1400.317122,0.001063
1402.245933,0.001520
1404.174745,0.001407
1406.103556,0.001522
1408.032368,0.001838
1409.961179,0.001905
1411.889990,0.001924
1413.818802,0.001910
1415.747613,0.001575
1417.676425,0.000512
1419.605236,0.000121
1421.534048,0.001139
1423.462859,0.001716
1425.391671,0.001914
1427.320482,0.002057
1429.249294,0.001789
1431.178105,0.001898
1433.106917,0.002101
1435.035728,0.001248
1436.964539,0.000749
1438.893351,0.001891
1440.822162,0.002658
1442.750974,0.002711
1444.679785,0.002686
1446.608597,0.002380
1448.537408,0.002313
1450.466220,0.002592
1452.395031,0.002578
1454.323843,0.001698
1456.252654,-0.000208
1458.181466,-0.000149
1460.110277,0.002059
1462.039089,0.002908
1463.967900,0.002318
1465.896711,0.002427
1467.825523,0.003308
1469.754334,0.002949
1471.683146,0.001433
1473.611957,0.001144
1475.540769,0.002083
1477.469580,0.002998
1479.398392,0.003590
1481.327203,0.003756
1483.256015,0.003791
1485.184826,0.003530
1487.113638,0.002764
1489.042449,0.002088
1490.971260,0.002507
1492.900072,0.003416
1494.828883,0.003122
1496.757695,0.002302
1498.686506,0.002614
1500.615318,0.003403
1502.544129,0.003584
1504.472941,0.001880
1506.401752,-0.000549
1508.330564,0.000639
1510.259375,0.002577
1512.188187,0.003194
1514.116998,0.003034
1516.045809,0.002285
1517.974621,0.001828
1519.903432,0.001298
1521.832244,0.000875
1523.761055,0.001860
1525.689867,0.002577
1527.618678,0.002937
1529.547490,0.003684
1531.476301,0.003413
1533.405113,0.002624
1535.333924,0.003188
1537.262736,0.002723
1539.191547,0.000074
1541.120358,-0.000257
1543.049170,0.001630
1544.977981,0.003053
1546.906793,0.004165
1548.835604,0.004435
1550.764416,0.004389
1552.693227,0.004108
1554.622039,0.003527
1556.550850,0.002257
1558.479662,0.000333
1560.408473,0.002977
1562.337285,0.007115
1564.266096,0.009171
1566.194907,0.010925
1568.123719,0.012566
1570.052530,0.015245
1571.981342,0.019921
1573.910153,0.023843
1575.838965,0.028450
1577.767776,0.036394
1579.696588,0.045177
1581.625399,0.054406
1583.554211,0.064769
1585.483022,0.076380
1587.411834,0.088844
1589.340645,0.101962
1591.269456,0.115363
1593.198268,0.127666
1595.127079,0.138226
1597.055891,0.146174
1598.984702,0.151070
1600.913514,0.152326
1602.842325,0.149790
1604.771137,0.144494
1606.699948,0.136219
1608.628760,0.125786
1610.557571,0.113284
1612.486383,0.100691
1614.415194,0.086979
1616.344005,0.072602
1618.272817,0.082937
1620.201628,0.117423
1622.130440,0.153720
1624.059251,0.181386
1625.988063,0.196767
1627.916874,0.202604
1629.845686,0.199178
1631.774497,0.186432
1633.703309,0.166717
1635.632120,0.139177
1637.560932,0.113945
1639.489743,0.093994
1641.418555,0.071587
1643.347366,0.051023
1645.276177,0.034405
1647.204989,0.020073
1649.133800,0.012201
1651.062612,0.006379
1652.991423,-0.000324
1654.920235,-0.000623
1656.849046,0.001329
1658.777858,0.001474
1660.706669,0.000725
1662.635481,0.000009
1664.564292,0.000366
1666.493104,0.000590
1668.421915,-0.000623
1670.350726,-0.000781
1672.279538,0.000233
1674.208349,0.000343
1676.137161,0.001050
1678.065972,0.002629
1679.994784,0.003228
1681.923595,0.002502
1683.852407,0.001377
1685.781218,0.002489
1687.710030,0.004180
1689.638841,0.004207
1691.567653,0.003957
1693.496464,0.002671
1695.425275,0.001344
1697.354087,0.003620
1699.282898,0.003606
1701.211710,0.000590
1703.140521,0.001110
1705.069333,0.002598
1706.998144,0.004102
1708.926956,0.006160
1710.855767,0.007393
1712.784579,0.007378
1714.713390,0.006334
1716.642202,0.004949
1718.571013,0.004888
1720.499824,0.005899
1722.428636,0.005994
1724.357447,0.005320
1726.286259,0.004892
1728.215070,0.004158
1730.143882,0.003324
1732.072693,0.002086
1734.001505,0.000803
1735.930316,0.001992
1737.859128,0.003091
1739.787939,0.002927
1741.716751,0.003241
1743.645562,0.003681
1745.574373,0.003555
1747.503185,0.003173
1749.431996,0.002699
1751.360808,0.002837
1753.289619,0.003695
1755.218431,0.003970
1757.147242,0.003835
1759.076054,0.003864
1761.004865,0.003304
1762.933677,0.002921
1764.862488,0.002975
1766.791300,0.002283
1768.720111,0.001344
1770.648922,0.000414
1772.577734,-0.000157
1774.506545,0.000679
1776.435357,0.001473
1778.364168,0.001479
1780.292980,0.001387
1782.221791,0.001527
1784.150603,0.001631
1786.079414,0.001730
1788.008226,0.001855
1789.937037,0.001306
1791.865849,0.000443
1793.794660,0.000700
1795.723471,0.001409
1797.652283,0.001451
1799.581094,0.001122
1801.509906,0.001159
1803.438717,0.001596
1805.367529,0.001930
1807.296340,0.002004
1809.225152,0.001855
1811.153963,0.001792
1813.082775,0.002081
1815.011586,0.002314
1816.940398,0.002293
1818.869209,0.002262
1820.798021,0.002313
1822.726832,0.002123
1824.655643,0.001791
1826.584455,0.001785
1828.513266,0.001644
1830.442078,0.001660
1832.370889,0.002323
1834.299701,0.002745
1836.228512,0.002802
1838.157324,0.002907
1840.086135,0.002947
1842.014947,0.002518
1843.943758,0.001937
1845.872570,0.002300
1847.801381,0.002979
1849.730192,0.003202
1851.659004,0.003272
1853.587815,0.003248
1855.516627,0.003105
1857.445438,0.002935
1859.374250,0.002847
1861.303061,0.002727
1863.231873,0.002470
1865.160684,0.002012
1867.089496,0.001169
1869.018307,0.000591
1870.947119,0.000770
1872.875930,0.001464
1874.804741,0.002242
1876.733553,0.001967
1878.662364,0.001152
1880.591176,0.001212
1882.519987,0.001618
1884.448799,0.001894
1886.377610,0.002174
1888.306422,0.002268
1890.235233,0.002499
1892.164045,0.002967
1894.092856,0.003265
1896.021668,0.003408
1897.950479,0.003527
1899.879290,0.003615
1901.808102,0.003680
1903.736913,0.003718
1905.665725,0.003664
1907.594536,0.003470
1909.523348,0.003289
1911.452159,0.003264
1913.380971,0.003237
1915.309782,0.002853
1917.238594,0.002235
1919.167405,0.002039
1921.096217,0.002035
1923.025028,0.001822
1924.953839,0.001761
1926.882651,0.001733
1928.811462,0.001523
1930.740274,0.001321
1932.669085,0.001136
1934.597897,0.000913
1936.526708,0.000683
1938.455520,0.000512
1940.384331,0.000296
1942.313143,0.000066
1944.241954,0.000093
1946.170766,0.000204
1948.099577,0.000217
1950.028388,0.000171
1951.957200,0.000120
1953.886011,0.000125
1955.814823,0.000124
1957.743634,0.000084
1959.672446,0.000056
1961.601257,0.000050
1963.530069,0.000025
1965.458880,-0.000046
1967.387692,-0.000058
1969.316503,-0.000010
1971.245315,0.000025
1973.174126,0.000063
1975.102938,0.000049
1977.031749,0.000025
1978.960560,0.000094
1980.889372,0.000134
1982.818183,0.000122
1984.746995,0.000104
1986.675806,0.000030
1988.604618,-0.000045
1990.533429,-0.000135
1992.462241,-0.000179
1994.391052,-0.000087
1996.319864,-0.000029
1998.248675,0.000015
2000.177487,0.000071
2002.106298,0.000052
2004.035109,0.000068
2005.963921,0.000093
2007.892732,0.000062
2009.821544,0.000025
2011.750355,-0.000000
2013.679167,0.000005
2015.607978,-0.000044
2017.536790,-0.000100
2019.465601,-0.000045
2021.394413,0.000004
2023.323224,0.000012
2025.252036,0.000008
2027.180847,-0.000016
2029.109658,-0.000016
2031.038470,-0.000018
2032.967281,-0.000020
2034.896093,0.000012
2036.824904,0.000032
2038.753716,0.000017
2040.682527,0.000014
2042.611339,0.000064
2044.540150,0.000099
2046.468962,0.000052
2048.397773,0.000021
2050.326585,0.000051
2052.255396,0.000053
2054.184207,-0.000005
2056.113019,-0.000034
2058.041830,-0.000008
2059.970642,0.000006
2061.899453,0.000009
2063.828265,-0.000009
2065.757076,-0.000029
2067.685888,0.000018
2069.614699,0.000060
2071.543511,0.000051
2073.472322,0.000044
2075.401134,0.000023
2077.329945,0.000020
2079.258756,0.000050
2081.187568,0.000002
2083.116379,-0.000078
2085.045191,-0.000037
2086.974002,0.000051
2088.902814,0.000083
2090.831625,0.000139
2092.760437,0.000187
2094.689248,0.000148
2096.618060,0.000123
2098.546871,0.000129
2100.475683,0.000112
2102.404494,0.000133
2104.333305,0.000185
2106.262117,0.000195
2108.190928,0.000175
2110.119740,0.000148
2112.048551,0.000131
2113.977363,0.000119
2115.906174,0.000075
2117.834986,0.000063
2119.763797,0.000114
2121.692609,0.000127
2123.621420,0.000124
2125.550232,0.000139
2127.479043,0.000115
2129.407854,0.000092
2131.336666,0.000071
2133.265477,0.000013
2135.194289,-0.000020
2137.123100,0.000011
2139.051912,0.000035
2140.980723,0.000007
2142.909535,-0.000034
2144.838346,-0.000057
2146.767158,-0.000034
2148.695969,0.000052
2150.624781,0.000111
2152.553592,0.000088
2154.482404,0.000119
2156.411215,0.000220
2158.340026,0.000226
2160.268838,0.000197
2162.197649,0.000247
2164.126461,0.000279
2166.055272,0.000259
2167.984084,0.000230
2169.912895,0.000214
2171.841707,0.000251
2173.770518,0.000335
2175.699330,0.000386
2177.628141,0.000388
2179.556953,0.000407
2181.485764,0.000455
2183.414575,0.000505
2185.343387,0.000542
2187.272198,0.000576
2189.201010,0.000618
2191.129821,0.000649
2193.058633,0.000704
2194.987444,0.000831
2196.916256,0.000987
2198.845067,0.001091
2200.773879,0.001141
2202.702690,0.001215
2204.631502,0.001291
2206.560313,0.001314
2208.489124,0.001367
2210.417936,0.001457
2212.346747,0.001469
2214.275559,0.001385
2216.204370,0.001241
2218.133182,0.001061
2220.061993,0.000879
2221.990805,0.000658
2223.919616,0.000536
2225.848428,0.000698
2227.777239,0.000991
2229.706051,0.001284
2231.634862,0.001600
2233.563673,0.001821
2235.492485,0.001903
2237.421296,0.001921
2239.350108,0.001864
2241.278919,0.001716
2243.207731,0.001486
2245.136542,0.001194
2247.065354,0.000925
2248.994165,0.000697
2250.922977,0.000470
2252.851788,0.000263
2254.780600,0.000132
2256.709411,0.000090
2258.638222,0.000070
2260.567034,0.000041
2262.495845,0.000002
2264.424657,-0.000037
2266.353468,-0.000037
2268.282280,-0.000032
2270.211091,-0.000017
2272.139903,0.000012
2274.068714,-0.000004
2275.997526,-0.000010
2277.926337,0.000021
2279.855149,0.000114
2281.783960,0.000200
2283.712771,0.000187
2285.641583,0.000171
2287.570394,0.000196
2289.499206,0.000177
2291.428017,0.000167
2293.356829,0.000170
2295.285640,0.000209
2297.214452,0.000250
2299.143263,0.000178
2301.072075,0.000099
2303.000886,0.000028
2304.929698,-0.000107
2306.858509,0.000055
2308.787320,0.000173
2310.716132,0.000186
2312.644943,0.000183
2314.573755,0.000149
2316.502566,0.000034
2318.431378,-0.000076
2320.360189,-0.000158
2322.289001,-0.000238
2324.217812,-0.000191
2326.146624,-0.000070
2328.075435,-0.000108
2330.004247,-0.000209
2331.933058,-0.000041
2333.861870,0.000100
2335.790681,0.000043
2337.719492,0.000026
2339.648304,0.000132
2341.577115,0.000276
2343.505927,0.000730
2345.434738,0.001699
2347.363550,0.002980
2349.292361,0.003625
2351.221173,0.002978
2353.149984,0.001737
2355.078796,0.000767
2357.007607,0.000162
2358.936419,-0.000041
2360.865230,0.000065
2362.794041,0.000305
2364.722853,-0.000241
2366.651664,-0.000578
2368.580476,-0.000775
2370.509287,-0.000770
2372.438099,-0.000572
2374.366910,-0.000365
2376.295722,-0.000200
2378.224533,-0.000141
2380.153345,-0.000271
2382.082156,-0.000531
2384.010968,-0.000204
2385.939779,-0.000108
2387.868590,-0.000037
2389.797402,0.000022
2391.726213,-0.000001
2393.655025,-0.000056
2395.583836,-0.000114
2397.512648,-0.000139
2399.441459,-0.000120
2401.370271,-0.000110
2403.299082,-0.000135
2405.227894,-0.000119
2407.156705,-0.000068
2409.085517,-0.000078
2411.014328,-0.000043
2412.943139,0.000024
2414.871951,-0.000005
2416.800762,-0.000014
2418.729574,-0.000021
2420.658385,-0.000061
2422.587197,-0.000020
2424.516008,0.000019
2426.444820,-0.000026
2428.373631,-0.000074
2430.302443,-0.000022
2432.231254,0.000042
2434.160066,-0.000018
2436.088877,-0.000064
2438.017688,-0.000053
2439.946500,-0.000056
2441.875311,-0.000068
2443.804123,-0.000113
2445.732934,-0.000093
2447.661746,0.000012
2449.590557,0.000055
2451.519369,0.000016
2453.448180,-0.000014
2455.376992,-0.000004
2457.305803,0.000002
2459.234615,0.000004
2461.163426,-0.000029
2463.092237,-0.000054
2465.021049,0.000034
2466.949860,0.000100
2468.878672,0.000052
2470.807483,-0.000032
2472.736295,-0.000033
2474.665106,0.000088
2476.593918,0.000134
2478.522729,0.000052
2480.451541,-0.000002
2482.380352,-0.000002
2484.309164,-0.000015
2486.237975,-0.000044
2488.166786,-0.000048
2490.095598,-0.000057
2492.024409,-0.000027
2493.953221,0.000025
2495.882032,-0.000013
2497.810844,-0.000049
2499.739655,-0.000030
2501.668467,-0.000002
2503.597278,0.000042
2505.526090,0.000064
2507.454901,0.000073
2509.383713,0.000069
2511.312524,0.000018
2513.241336,-0.000029
2515.170147,-0.000029
2517.098958,-0.000023
2519.027770,-0.000067
2520.956581,-0.000114
2522.885393,-0.000110
2524.814204,-0.000074
2526.743016,-0.000057
2528.671827,-0.000082
2530.600639,-0.000071
2532.529450,-0.000053
2534.458262,-0.000112
2536.387073,-0.000140
2538.315885,-0.000084
2540.244696,-0.000069
2542.173507,-0.000109
2544.102319,-0.000116
2546.031130,-0.000154
2547.959942,-0.000236
2549.888753,-0.000175
2551.817565,-0.000041
2553.746376,-0.000061
2555.675188,-0.000131
2557.603999,-0.000140
2559.532811,-0.000161
2561.461622,-0.000179
2563.390434,-0.000159
2565.319245,-0.000165
2567.248056,-0.000181
2569.176868,-0.000130
2571.105679,-0.000066
2573.034491,-0.000058
2574.963302,-0.000047
2576.892114,-0.000084
2578.820925,-0.000187
2580.749737,-0.000204
2582.678548,-0.000173
2584.607360,-0.000187
2586.536171,-0.000184
2588.464983,-0.000173
2590.393794,-0.000175
2592.322605,-0.000170
2594.251417,-0.000190
2596.180228,-0.000210
2598.109040,-0.000194
2600.037851,-0.000171
2601.966663,-0.000144
2603.895474,-0.000147
2605.824286,-0.000161
2607.753097,-0.000128
2609.681909,-0.000136
2611.610720,-0.000181
2613.539532,-0.000162
2615.468343,-0.000124
2617.397154,-0.000115
2619.325966,-0.000107
2621.254777,-0.000095
2623.183589,-0.000114
2625.112400,-0.000114
2627.041212,-0.000084
2628.970023,-0.000096
2630.898835,-0.000118
2632.827646,-0.000152
2634.756458,-0.000186
2636.685269,-0.000189
2638.614081,-0.000222
2640.542892,-0.000187
2642.471703,-0.000083
2644.400515,-0.000102
2646.329326,-0.000165
2648.258138,-0.000161
2650.186949,-0.000171
2652.115761,-0.000180
2654.044572,-0.000150
2655.973384,-0.000114
2657.902195,-0.000099
2659.831007,-0.000168
2661.759818,-0.000269
2663.688630,-0.000233
2665.617441,-0.000135
2667.546253,-0.000158
2669.475064,-0.000198
2671.403875,-0.000100
2673.332687,-0.000007
2675.261498,-0.000073
2677.190310,-0.000188
2679.119121,-0.000230
2681.047933,-0.000171
2682.976744,-0.000086
2684.905556,-0.000068
2686.834367,-0.000076
2688.763179,-0.000085
2690.691990,-0.000104
2692.620802,-0.000128
2694.549613,-0.000150
2696.478424,-0.000172
2698.407236,-0.000170
2700.336047,-0.000105
2702.264859,-0.000093
2704.193670,-0.000155
2706.122482,-0.000160
2708.051293,-0.000139
2709.980105,-0.000121
2711.908916,-0.000112
2713.837728,-0.000099
2715.766539,-0.000074
2717.695351,-0.000128
2719.624162,-0.000183
2721.552973,-0.000139
2723.481785,-0.000081
2725.410596,-0.000051
2727.339408,-0.000049
2729.268219,-0.000076
2731.197031,-0.000088
2733.125842,-0.000057
2735.054654,-0.000034
2736.983465,-0.000049
2738.912277,-0.000052
2740.841088,-0.000066
2742.769900,-0.000078
2744.698711,-0.000042
2746.627522,-0.000023
2748.556334,0.000000
2750.485145,-0.000016
2752.413957,-0.000128
2754.342768,-0.000146
2756.271580,-0.000078
2758.200391,-0.000083
2760.129203,-0.000146
2762.058014,-0.000168
2763.986826,-0.000110
2765.915637,-0.000111
2767.844449,-0.000150
2769.773260,-0.000086
2771.702071,-0.000054
2773.630883,-0.000110
2775.559694,-0.000085
2777.488506,0.000018
2779.417317,0.000026
2781.346129,-0.000049
2783.274940,-0.000080
2785.203752,-0.000083
2787.132563,-0.000081
2789.061375,-0.000105
2790.990186,-0.000114
2792.918998,-0.000029
2794.847809,0.000060
2796.776620,0.000060
2798.705432,-0.000029
2800.634243,-0.000098
2802.563055,-0.000067
2804.491866,-0.000016
2806.420678,0.000016
2808.349489,-0.000023
2810.278301,-0.000091
2812.207112,-0.000003
2814.135924,0.000095
2816.064735,-0.000014
2817.993547,-0.000103
2819.922358,-0.000029
2821.851169,0.000012
2823.779981,-0.000036
2825.708792,-0.000084
2827.637604,-0.000077
2829.566415,-0.000024
2831.495227,0.000011
2833.424038,0.000013
2835.352850,-0.000008
2837.281661,-0.000001
2839.210473,0.000011
2841.139284,0.000022
2843.068096,0.000164
2844.996907,0.000336
2846.925719,0.000385
2848.854530,0.000365
2850.783341,0.000311
2852.712153,0.000341
2854.640964,0.000488
2856.569776,0.000670
2858.498587,0.000868
2860.427399,0.001001
2862.356210,0.001232
2864.285022,0.001662
2866.213833,0.002032
2868.142645,0.002348
2870.071456,0.002700
2872.000268,0.003133
2873.929079,0.003717
2875.857890,0.004298
2877.786702,0.004855
2879.715513,0.005439
2881.644325,0.005995
2883.573136,0.006597
2885.501948,0.007139
2887.430759,0.007477
2889.359571,0.007710
2891.288382,0.007773
2893.217194,0.007572
2895.146005,0.007250
2897.074817,0.006865
2899.003628,0.006329
2900.932439,0.005708
2902.861251,0.005013
2904.790062,0.004069
2906.718874,0.003705
2908.647685,0.005038
2910.576497,0.007343
2912.505308,0.009421
2914.434120,0.010982
2916.362931,0.011870
2918.291743,0.012047
2920.220554,0.011542
2922.149366,0.010409
2924.078177,0.008833
2926.006988,0.006995
2927.935800,0.005125
2929.864611,0.003408
2931.793423,0.002005
2933.722234,0.001065
2935.651046,0.000523
2937.579857,0.000200
2939.508669,0.000043
2941.437480,0.000007
2943.366292,-0.000005
2945.295103,-0.000010
2947.223915,-0.000014
2949.152726,-0.000039
2951.081537,-0.000057
2953.010349,-0.000026
2954.939160,0.000019
2956.867972,0.000054
2958.796783,0.000111
2960.725595,0.000061
2962.654406,-0.000077
2964.583218,-0.000087
2966.512029,0.000000
2968.440841,0.000018
2970.369652,-0.000025
2972.298464,0.000006
2974.227275,0.000050
2976.156086,0.000037
2978.084898,0.000032
2980.013709,0.000071
2981.942521,0.000129
2983.871332,0.000075
2985.800144,0.000008
2987.728955,0.000001
2989.657767,-0.000078
2991.586578,-0.000075
2993.515390,0.000006
2995.444201,-0.000026
2997.373013,-0.000073
2999.301824,-0.000019
3001.230635,0.000027
3003.159447,-0.000027
3005.088258,-0.000011
3007.017070,0.000058
3008.945881,-0.000052
3010.874693,-0.000173
3012.803504,-0.000111
3014.732316,-0.000039
3016.661127,-0.000096
3018.589939,-0.000217
3020.518750,-0.000207
3022.447562,-0.000076
3024.376373,-0.000079
3026.305185,-0.000118
3028.233996,-0.000053
3030.162807,-0.000061
3032.091619,-0.000125
3034.020430,-0.000133
3035.949242,-0.000081
3037.878053,0.000004
3039.806865,0.000052
3041.735676,0.000048
3043.664488,0.000004
3045.593299,-0.000028
3047.522111,-0.000053
3049.450922,-0.000147
3051.379734,-0.000175
3053.308545,-0.000079
3055.237356,-0.000022
3057.166168,-0.000067
3059.094979,-0.000166
3061.023791,-0.000153
3062.952602,0.000038
3064.881414,0.000116
3066.810225,-0.000050
3068.739037,-0.000176
3070.667848,-0.000147
3072.596660,-0.000128
3074.525471,-0.000111
3076.454283,-0.000043
3078.383094,-0.000022
3080.311905,-0.000065
3082.240717,-0.000163
3084.169528,-0.000182
3086.098340,-0.000011
3088.027151,0.000112
3089.955963,0.000071
3091.884774,-0.000031
3093.813586,-0.000095
3095.742397,-0.000119
3097.671209,-0.000178
3099.600020,-0.000173
3101.528832,-0.000188
3103.457643,-0.000265
3105.386454,-0.000117
3107.315266,0.000124
3109.244077,0.000137
3111.172889,-0.000003
3113.101700,-0.000105
3115.030512,-0.000146
3116.959323,-0.000121
3118.888135,-0.000035
3120.816946,-0.000012
3122.745758,-0.000011
3124.674569,0.000007
3126.603381,-0.000047
3128.532192,-0.000080
3130.461003,-0.000095
3132.389815,-0.000157
3134.318626,-0.000142
3136.247438,-0.000084
3138.176249,-0.000111
3140.105061,-0.000146
3142.033872,-0.000101
3143.962684,-0.000101
3145.891495,-0.000154
3147.820307,-0.000119
3149.749118,-0.000083
3151.677930,-0.000094
3153.606741,-0.000138
3155.535552,-0.000224
3157.464364,-0.000254
3159.393175,-0.000237
3161.321987,-0.000199
3163.250798,-0.000141
3165.179610,-0.000081
3167.108421,-0.000016
3169.037233,-0.000040
3170.966044,-0.000131
3172.894856,-0.000185
3174.823667,-0.000137
3176.752479,-0.000057
3178.681290,-0.000099
3180.610102,-0.000193
3182.538913,-0.000253
3184.467724,-0.000217
3186.396536,-0.000124
3188.325347,-0.000080
3190.254159,-0.000020
3192.182970,-0.000001
3194.111782,0.000014
3196.040593,0.000054
3197.969405,-0.000036
3199.898216,-0.000119
3201.827028,-0.000055
3203.755839,-0.000022
3205.684651,-0.000118
3207.613462,-0.000143
3209.542273,-0.000060
3211.471085,-0.000121
3213.399896,-0.000188
3215.328708,-0.000065
3217.257519,-0.000085
3219.186331,-0.000281
3221.115142,-0.000269
3223.043954,-0.000204
3224.972765,-0.000312
3226.901577,-0.000325
3228.830388,-0.000175
3230.759200,-0.000068
3232.688011,-0.000128
3234.616822,-0.000251
3236.545634,-0.000192
3238.474445,-0.000019
3240.403257,0.000030
3242.332068,0.000041
3244.260880,0.000113
3246.189691,0.000031
3248.118503,-0.000067
3250.047314,-0.000003
3251.976126,-0.000073
3253.904937,-0.000169
3255.833749,-0.000114
3257.762560,-0.000062
3259.691371,-0.000003
3261.620183,-0.000017
3263.548994,-0.000064
3265.477806,-0.000013
3267.406617,0.000009
3269.335429,-0.000010
3271.264240,-0.000002
3273.193052,-0.000020
3275.121863,-0.000055
3277.050675,-0.000087
3278.979486,-0.000185
3280.908298,-0.000225
3282.837109,-0.000174
3284.765920,-0.000213
3286.694732,-0.000196
3288.623543,-0.000098
3290.552355,-0.000106
3292.481166,-0.000186
3294.409978,-0.000278
3296.338789,-0.000278
3298.267601,-0.000235
3300.196412,-0.000223
3302.125224,-0.000129
3304.054035,-0.000128
3305.982847,-0.000314
3307.911658,-0.000350
3309.840469,-0.000294
3311.769281,-0.000348
3313.698092,-0.000280
3315.626904,-0.000149
3317.555715,-0.000137
3319.484527,-0.000147
3321.413338,-0.000262
3323.342150,-0.000402
3325.270961,-0.000365
3327.199773,-0.000231
3329.128584,-0.000088
3331.057396,-0.000046
3332.986207,-0.000102
3334.915018,-0.000108
3336.843830,-0.000087
3338.772641,-0.000128
3340.701453,-0.000193
3342.630264,-0.000232
3344.559076,-0.000256
3346.487887,-0.000206
3348.416699,-0.000116
3350.345510,-0.000151
3352.274322,-0.000242
3354.203133,-0.000248
3356.131945,-0.000158
3358.060756,-0.000061
3359.989568,0.000027
3361.918379,0.000159
3363.847190,0.000124
3365.776002,0.000001
3367.704813,0.000020
3369.633625,0.000007
3371.562436,0.000026
3373.491248,0.000094
3375.420059,0.000040
3377.348871,-0.000020
3379.277682,-0.000017
3381.206494,0.000053
3383.135305,0.000210
3385.064117,0.000287
3386.992928,0.000210
3388.921739,0.000284
3390.850551,0.000483
3392.779362,0.000404
3394.708174,0.000244
3396.636985,0.000294
3398.565797,0.000302
3400.494608,0.000114
3402.423420,-0.000019
3404.352231,-0.000031
3406.281043,-0.000043
3408.209854,0.000099
3410.138666,0.000229
3412.067477,0.000130
3413.996288,0.000140
3415.925100,0.000219
3417.853911,0.000187
3419.782723,0.000213
3421.711534,0.000116
3423.640346,-0.000073
3425.569157,-0.000059
3427.497969,-0.000061
3429.426780,-0.000062
3431.355592,0.000105
3433.284403,0.000293
3435.213215,0.000356
3437.142026,0.000169
3439.070837,0.000151
3440.999649,0.000448
3442.928460,0.000385
3444.857272,0.000144
3446.786083,0.000166
3448.714895,0.000150
3450.643706,0.000094
3452.572518,0.000178
3454.501329,0.000298
3456.430141,0.000277
3458.358952,0.000163
3460.287764,0.000278
3462.216575,0.000428
3464.145386,0.000350
3466.074198,0.000364
3468.003009,0.000472
3469.931821,0.000415
3471.860632,0.000261
3473.789444,0.000188
3475.718255,0.000203
3477.647067,0.000164
3479.575878,0.000030
3481.504690,0.000105
3483.433501,0.000426
3485.362313,0.000365
3487.291124,0.000164
3489.219935,0.000285
3491.148747,0.000162
3493.077558,-0.000036
3495.006370,0.000052
3496.935181,0.000073
3498.863993,0.000055
3500.792804,-0.000040
3502.721616,-0.000177
3504.650427,0.000001
3506.579239,0.000214
3508.508050,0.000157
3510.436862,0.000100
3512.365673,0.000136
3514.294484,0.000219
3516.223296,0.000302
3518.152107,0.000337
3520.080919,0.000440
3522.009730,0.000384
3523.938542,0.000211
3525.867353,0.000249
3527.796165,0.000314
3529.724976,0.000284
3531.653788,0.000375
3533.582599,0.000639
3535.511411,0.000714
3537.440222,0.000622
3539.369034,0.000702
3541.297845,0.000691
3543.226656,0.000510
3545.155468,0.000327
3547.084279,0.000289
3549.013091,0.000623
3550.941902,0.000946
3552.870714,0.001022
3554.799525,0.001188
3556.728337,0.001450
3558.657148,0.001651
3560.585960,0.001742
3562.514771,0.001764
3564.443583,0.001831
3566.372394,0.001768
3568.301205,0.001822
3570.230017,0.002478
3572.158828,0.003116
3574.087640,0.003270
3576.016451,0.003226
3577.945263,0.003125
3579.874074,0.002970
3581.802886,0.002607
3583.731697,0.002182
3585.660509,0.001938
3587.589320,0.002014
3589.518132,0.002469
3591.446943,0.002424
3593.375754,0.001950
3595.304566,0.002072
3597.233377,0.002468
3599.162189,0.002762
3601.091000,0.003158
3603.019812,0.003428
3604.948623,0.003356
3606.877435,0.002947
3608.806246,0.002436
3610.735058,0.002199
3612.663869,0.002053
3614.592681,0.001882
3616.521492,0.001814
3618.450303,0.001433
3620.379115,0.001217
3622.307926,0.001525
3624.236738,0.001551
3626.165549,0.001316
3628.094361,0.000576
3630.023172,-0.000073
3631.951984,0.000709
3633.880795,0.001595
3635.809607,0.001848
3637.738418,0.002054
3639.667230,0.002075
3641.596041,0.001881
3643.524852,0.001700
3645.453664,0.001266
3647.382475,0.000454
3649.311287,-0.000428
3651.240098,-0.000536
3653.168910,0.000541
3655.097721,0.001256
3657.026533,0.001108
3658.955344,0.001498
3660.884156,0.002145
3662.812967,0.002251
3664.741779,0.001999
3666.670590,0.001760
3668.599401,0.001111
3670.528213,-0.000009
3672.457024,0.000010
3674.385836,0.000192
3676.314647,-0.000293
3678.243459,0.000323
3680.172270,0.001237
3682.101082,0.001538
3684.029893,0.001777
3685.958705,0.001844
3687.887516,0.001281
3689.816328,0.000556
3691.745139,0.000817
3693.673951,0.001693
3695.602762,0.002098
3697.531573,0.002042
3699.460385,0.002019
3701.389196,0.001947
3703.318008,0.001895
3705.246819,0.002035
3707.175631,0.001859
3709.104442,0.001381
3711.033254,0.000932
3712.962065,0.000964
3714.890877,0.001811
3716.819688,0.002373
3718.748500,0.002230
3720.677311,0.001962
3722.606122,0.001796
3724.534934,0.001825
3726.463745,0.001820
3728.392557,0.001783
3730.321368,0.001592
3732.250180,0.000864
3734.178991,0.000235
3736.107803,0.000264
3738.036614,0.000574
3739.965426,0.001081
3741.894237,0.001438
3743.823049,0.000545
3745.751860,-0.000391
3747.680671,0.000282
3749.609483,0.000454
3751.538294,-0.000042
3753.467106,0.000539
3755.395917,0.001422
3757.324729,0.001936
3759.253540,0.002038
3761.182352,0.002078
3763.111163,0.002395
3765.039975,0.002381
3766.968786,0.002238
3768.897598,0.002199
3770.826409,0.002130
3772.755220,0.002412
3774.684032,0.002624
3776.612843,0.002482
3778.541655,0.002259
3780.470466,0.002121
3782.399278,0.002355
3784.328089,0.002607
3786.256901,0.002547
3788.185712,0.002588
3790.114524,0.002608
3792.043335,0.002444
3793.972147,0.002320
3795.900958,0.001718
3797.829769,0.001290
3799.758581,0.001427
3801.687392,0.000749
3803.616204,0.000751
3805.545015,0.001429
3807.473827,0.001095
3809.402638,0.001280
3811.331450,0.001902
3813.260261,0.002089
3815.189073,0.001521
3817.117884,0.000479
3819.046696,0.000656
3820.975507,0.000608
3822.904318,0.000378
3824.833130,0.001185
3826.761941,0.001292
3828.690753,0.001163
3830.619564,0.001250
3832.548376,0.000856
3834.477187,0.000867
3836.405999,0.000741
3838.334810,0.000015
3840.263622,0.000088
3842.192433,0.000640
3844.121245,0.000914
3846.050056,0.001175
3847.978867,0.001138
3849.907679,0.000864
3851.836490,0.000306
3853.765302,-0.001063
3855.694113,-0.001143
3857.622925,0.000375
3859.551736,0.001101
3861.480548,0.000884
3863.409359,0.000470
3865.338171,0.000123
3867.266982,0.000365
3869.195794,0.000340
3871.124605,-0.000038
3873.053417,0.000338
3874.982228,0.000591
3876.911039,0.000684
3878.839851,0.000730
3880.768662,0.000143
3882.697474,0.000193
3884.626285,0.000333
3886.555097,-0.000206
3888.483908,0.000186
3890.412720,0.000690
3892.341531,0.000407
3894.270343,0.000459
3896.199154,0.000661
3898.127966,0.000202
3900.056777,-0.000495
3901.985588,-0.000606
3903.914400,-0.000456
3905.843211,-0.000231
3907.772023,0.000350
3909.700834,0.000646
3911.629646,0.000619
3913.558457,0.000715
3915.487269,0.000592
3917.416080,0.000301
3919.344892,0.000266
3921.273703,0.000463
3923.202515,0.000552
3925.131326,0.000406
3927.060137,0.000342
3928.988949,0.000360
3930.917760,0.000278
3932.846572,0.000247
3934.775383,0.000427
3936.704195,0.000572
3938.633006,0.000448
3940.561818,0.000237
3942.490629,0.000096
3944.419441,0.000149
3946.348252,0.000224
3948.277064,0.000037
3950.205875,-0.000080
3952.134686,-0.000003
3954.063498,0.000026
3955.992309,0.000008
3957.921121,0.000022
3959.849932,0.000071
3961.778744,-0.000037
3963.707555,-0.000186
3965.636367,-0.000122
3967.565178,-0.000026
3969.493990,-0.000094
3971.422801,-0.000164
3973.351613,-0.000081
3975.280424,0.000065
3977.209235,0.000145
3979.138047,0.000252
3981.066858,0.000251
3982.995670,0.000056
3984.924481,0.000008
3986.853293,0.000052
3988.782104,0.000056
3990.710916,-0.000003
3992.639727,-0.000188
3994.568539,-0.000109
3996.497350,0.000088
3998.426162,0.000022
4000.354973,-0.000063
