XLabel,Wavenumber
YLabel,Absorbance
FileType,Absorbance
DisplayDirection,20300
PeakDirection,20312
898.826141,-0.000555
900.754953,-0.000048
902.683764,-0.000197
904.612576,0.000053
906.541387,0.000411
908.470199,0.000081
910.399010,-0.000085
912.327822,0.000027
914.256633,0.000078
916.185445,-0.000094
918.114256,-0.000598
920.043068,-0.000742
921.971879,-0.000170
923.900690,0.000513
925.829502,0.000379
927.758313,-0.000045
929.687125,-0.000108
931.615936,-0.000134
933.544748,-0.000030
935.473559,0.000265
937.402371,0.000316
939.331182,0.000115
941.259994,-0.000129
943.188805,-0.000344
945.117617,-0.000315
947.046428,-0.000056
948.975240,0.000242
950.904051,0.000387
952.832862,0.000337
954.761674,0.000451
956.690485,0.000591
958.619297,0.000360
960.548108,0.000106
962.476920,-0.000004
964.405731,-0.000052
966.334543,0.000041
968.263354,0.000087
970.192166,0.000122
972.120977,0.000108
974.049789,-0.000077
975.978600,-0.000092
977.907411,-0.000105
979.836223,-0.000178
981.765034,-0.000024
983.693846,0.000032
985.622657,-0.000071
987.551469,-0.000142
989.480280,-0.000181
991.409092,-0.000119
993.337903,-0.000085
995.266715,-0.000120
997.195526,-0.000165
999.124338,-0.000231
1001.053149,-0.000203
1002.981960,-0.000093
1004.910772,-0.000082
1006.839583,-0.000083
1008.768395,0.000033
1010.697206,0.000022
1012.626018,-0.000122
1014.554829,-0.000138
1016.483641,-0.000143
1018.412452,-0.000246
1020.341264,-0.000326
1022.270075,-0.000266
1024.198887,-0.000110
1026.127698,-0.000080
1028.056509,-0.000092
1029.985321,0.000014
1031.914132,0.000032
1033.842944,-0.000016
1035.771755,0.000023
1037.700567,0.000023
1039.629378,-0.000015
1041.558190,0.000042
1043.487001,0.000121
1045.415813,0.000064
1047.344624,-0.000050
1049.273436,-0.000052
1051.202247,-0.000023
1053.131058,-0.000001
1055.059870,-0.000018
1056.988681,-0.000148
1058.917493,-0.000166
1060.846304,-0.000068
1062.775116,-0.000056
1064.703927,-0.000017
1066.632739,0.000005
1068.561550,-0.000042
1070.490362,-0.000035
1072.419173,-0.000052
1074.347985,-0.000043
1076.276796,0.000072
1078.205607,0.000128
1080.134419,0.000099
1082.063230,0.000077
1083.992042,0.000094
1085.920853,0.000103
1087.849665,0.000040
1089.778476,0.000002
1091.707288,0.000093
1093.636099,0.000208
1095.564911,0.000261
1097.493722,0.000287
1099.422534,0.000213
1101.351345,0.000091
1103.280156,0.000035
1105.208968,0.000008
1107.137779,-0.000036
1109.066591,-0.000028
1110.995402,0.000002
1112.924214,-0.000054
1114.853025,-0.000087
1116.781837,-0.000042
1118.710648,-0.000058
1120.639460,-0.000083
1122.568271,-0.000074
1124.497083,-0.000050
1126.425894,0.000024
1128.354706,0.000026
1130.283517,-0.000059
1132.212328,-0.000153
1134.141140,-0.000219
1136.069951,-0.000213
1137.998763,-0.000248
1139.927574,-0.000292
1141.856386,-0.000231
1143.785197,-0.000171
1145.714009,-0.000141
1147.642820,-0.000146
1149.571632,-0.000192
1151.500443,-0.000199
1153.429255,-0.000178
1155.358066,-0.000137
1157.286877,-0.000116
1159.215689,-0.000164
1161.144500,-0.000185
1163.073312,-0.000169
1165.002123,-0.000133
1166.930935,-0.000058
1168.859746,-0.000054
1170.788558,-0.000070
1172.717369,-0.000003
1174.646181,-0.000016
1176.574992,-0.000138
1178.503804,-0.000167
1180.432615,-0.000053
1182.361426,0.000039
1184.290238,-0.000001
1186.219049,-0.000086
1188.147861,-0.000123
1190.076672,-0.000091
1192.005484,-0.000017
1193.934295,0.000008
1195.863107,-0.000018
1197.791918,-0.000021
1199.720730,-0.000010
1201.649541,-0.000024
1203.578353,-0.000043
1205.507164,-0.000027
1207.435975,-0.000014
1209.364787,0.000008
1211.293598,0.000088
1213.222410,0.000090
1215.151221,0.000096
1217.080033,0.000205
1219.008844,0.000288
1220.937656,0.000392
1222.866467,0.000513
1224.795279,0.000602
1226.724090,0.000835
1228.652902,0.001193
1230.581713,0.001489
1232.510524,0.001819
1234.439336,0.002263
1236.368147,0.002753
1238.296959,0.003358
1240.225770,0.003952
1242.154582,0.004555
1244.083393,0.005242
1246.012205,0.005845
1247.941016,0.006483
1249.869828,0.007059
1251.798639,0.007324
1253.727451,0.006958
1255.656262,0.006208
1257.585073,0.005639
1259.513885,0.005165
1261.442696,0.006476
1263.371508,0.008748
1265.300319,0.007995
1267.229131,0.006299
1269.157942,0.006692
1271.086754,0.007601
1273.015565,0.008136
1274.944377,0.008296
1276.873188,0.008034
1278.802000,0.007662
1280.730811,0.007245
1282.659622,0.006675
1284.588434,0.005941
1286.517245,0.005312
1288.446057,0.004838
1290.374868,0.004480
1292.303680,0.004161
1294.232491,0.003824
1296.161303,0.003662
1298.090114,0.003561
1300.018926,0.003480
1301.947737,0.003466
1303.876549,0.003405
1305.805360,0.003379
1307.734172,0.003408
1309.662983,0.003370
1311.591794,0.003219
1313.520606,0.003076
1315.449417,0.002934
1317.378229,0.002673
1319.307040,0.002431
1321.235852,0.002276
1323.164663,0.002229
1325.093475,0.002263
1327.022286,0.002094
1328.951098,0.001813
1330.879909,0.001723
1332.808721,0.001609
1334.737532,0.001322
1336.666343,0.000967
1338.595155,0.000634
1340.523966,0.000593
1342.452778,0.000761
1344.381589,0.000771
1346.310401,0.000656
1348.239212,0.000551
1350.168024,0.000487
1352.096835,0.000386
1354.025647,0.000184
1355.954458,0.000099
1357.883270,0.000123
1359.812081,-0.000101
1361.740892,-0.000468
1363.669704,-0.000225
1365.598515,0.000342
1367.527327,0.000447
1369.456138,0.000415
1371.384950,0.000369
1373.313761,0.000034
1375.242573,0.000074
1377.171384,0.000630
1379.100196,0.000976
1381.029007,0.001131
1382.957819,0.001244
1384.886630,0.000974
1386.815441,0.000539
1388.744253,0.000790
1390.673064,0.001300
1392.601876,0.001007
1394.530687,0.000532
1396.459499,0.000607
1398.388310,0.000672
1400.317122,0.001110
1402.245933,0.001620
1404.174745,0.001534
1406.103556,0.001692
1408.032368,0.001979
1409.961179,0.001958
1411.889990,0.001952
1413.818802,0.001912
1415.747613,0.001570
1417.676425,0.000617
1419.605236,0.000359
1421.534048,0.001344
1423.462859,0.001800
1425.391671,0.001939
1427.320482,0.002081
1429.249294,0.001820
1431.178105,0.001955
1433.106917,0.002250
1435.035728,0.001511
1436.964539,0.001040
1438.893351,0.002168
1440.822162,0.002923
1442.750974,0.002915
1444.679785,0.002884
1446.608597,0.002628
1448.537408,0.002523
1450.466220,0.002783
1452.395031,0.002821
1454.323843,0.001940
1456.252654,0.000063
1458.181466,0.000184
1460.110277,0.002410
1462.039089,0.003297
1463.967900,0.002701
1465.896711,0.002768
1467.825523,0.003593
1469.754334,0.003169
1471.683146,0.001690
1473.611957,0.001453
1475.540769,0.002399
1477.469580,0.003330
1479.398392,0.003911
1481.327203,0.004084
1483.256015,0.004145
1485.184826,0.003865
1487.113638,0.003063
1489.042449,0.002393
1490.971260,0.002824
1492.900072,0.003696
1494.828883,0.003350
1496.757695,0.002491
1498.686506,0.002816
1500.615318,0.003619
1502.544129,0.003754
1504.472941,0.002059
1506.401752,-0.000332
1508.330564,0.000744
1510.259375,0.002588
1512.188187,0.003225
1514.116998,0.003134
1516.045809,0.002400
1517.974621,0.001888
1519.903432,0.001328
1521.832244,0.000882
1523.761055,0.001816
1525.689867,0.002530
1527.618678,0.002917
1529.547490,0.003646
1531.476301,0.003326
1533.405113,0.002522
1535.333924,0.003092
1537.262736,0.002642
1539.191547,0.000041
1541.120358,-0.000279
1543.049170,0.001414
1544.977981,0.002810
1546.906793,0.003888
1548.835604,0.004194
1550.764416,0.004212
1552.693227,0.003946
1554.622039,0.003300
1556.550850,0.001991
1558.479662,0.000164
1560.408473,0.002781
1562.337285,0.006760
1564.266096,0.008691
1566.194907,0.010267
1568.123719,0.011719
1570.052530,0.014216
1571.981342,0.018615
1573.910153,0.022253
1575.838965,0.026544
1577.767776,0.034029
1579.696588,0.042325
1581.625399,0.051006
1583.554211,0.060665
1585.483022,0.071452
1587.411834,0.083047
1589.340645,0.095239
1591.269456,0.107701
1593.198268,0.119182
1595.127079,0.129023
1597.055891,0.136488
1598.984702,0.141179
1600.913514,0.142439
1602.842325,0.140141
1604.771137,0.135165
1606.699948,0.127347
1608.628760,0.117592
1610.557571,0.105913
1612.486383,0.094106
1614.415194,0.081258
1616.344005,0.067806
1618.272817,0.077383
1620.201628,0.109438
1622.130440,0.143295
1624.059251,0.169200
1625.988063,0.183580
1627.916874,0.189099
1629.845686,0.185984
1631.774497,0.174143
1633.703309,0.155830
1635.632120,0.130275
1637.560932,0.106643
1639.489743,0.087866
1641.418555,0.067027
1643.347366,0.047862
1645.276177,0.032240
1647.204989,0.018900
1649.133800,0.011589
1651.062612,0.005844
1652.991423,-0.000699
1654.920235,-0.000832
1656.849046,0.001177
1658.777858,0.001415
1660.706669,0.000735
1662.635481,0.000050
1664.564292,0.000384
1666.493104,0.000562
1668.421915,-0.000647
1670.350726,-0.000746
1672.279538,0.000292
1674.208349,0.000368
1676.137161,0.001002
1678.065972,0.002498
1679.994784,0.003011
1681.923595,0.002210
1683.852407,0.001135
1685.781218,0.002362
1687.710030,0.004074
1689.638841,0.004138
1691.567653,0.003957
1693.496464,0.002815
1695.425275,0.001501
1697.354087,0.003388
1699.282898,0.003355
1701.211710,0.000840
1703.140521,0.001445
1705.069333,0.002773
1706.998144,0.004101
1708.926956,0.005961
1710.855767,0.007095
1712.784579,0.007045
1714.713390,0.005992
1716.642202,0.004633
1718.571013,0.004606
1720.499824,0.005728
1722.428636,0.005986
1724.357447,0.005408
1726.286259,0.004996
1728.215070,0.004270
1730.143882,0.003418
1732.072693,0.002188
1734.001505,0.000935
1735.930316,0.002018
1737.859128,0.003023
1739.787939,0.002848
1741.716751,0.003139
1743.645562,0.003581
1745.574373,0.003472
1747.503185,0.003061
1749.431996,0.002585
1751.360808,0.002766
1753.289619,0.003599
1755.218431,0.003802
1757.147242,0.003611
1759.076054,0.003600
1761.004865,0.003048
1762.933677,0.002752
1764.862488,0.002938
1766.791300,0.002347
1768.720111,0.001443
1770.648922,0.000567
1772.577734,0.000097
1774.506545,0.000899
1776.435357,0.001699
1778.364168,0.001714
1780.292980,0.001593
1782.221791,0.001685
1784.150603,0.001758
1786.079414,0.001888
1788.008226,0.002027
1789.937037,0.001470
1791.865849,0.000597
1793.794660,0.000791
1795.723471,0.001487
1797.652283,0.001586
1799.581094,0.001272
1801.509906,0.001258
1803.438717,0.001641
1805.367529,0.001969
1807.296340,0.002052
1809.225152,0.001892
1811.153963,0.001811
1813.082775,0.002047
1815.011586,0.002198
1816.940398,0.002153
1818.869209,0.002121
1820.798021,0.002139
1822.726832,0.001933
1824.655643,0.001575
1826.584455,0.001528
1828.513266,0.001382
1830.442078,0.001360
1832.370889,0.002000
1834.299701,0.002453
1836.228512,0.002479
1838.157324,0.002503
1840.086135,0.002511
1842.014947,0.002071
1843.943758,0.001426
1845.872570,0.001707
1847.801381,0.002400
1849.730192,0.002695
1851.659004,0.002770
1853.587815,0.002720
1855.516627,0.002613
1857.445438,0.002503
1859.374250,0.002438
1861.303061,0.002316
1863.231873,0.002079
1865.160684,0.001714
1867.089496,0.000967
1869.018307,0.000438
1870.947119,0.000712
1872.875930,0.001376
1874.804741,0.001945
1876.733553,0.001697
1878.662364,0.001069
1880.591176,0.001069
1882.519987,0.001315
1884.448799,0.001520
1886.377610,0.001743
1888.306422,0.001757
1890.235233,0.001903
1892.164045,0.002292
1894.092856,0.002519
1896.021668,0.002643
1897.950479,0.002764
1899.879290,0.002814
1901.808102,0.002853
1903.736913,0.002868
1905.665725,0.002775
1907.594536,0.002601
1909.523348,0.002475
1911.452159,0.002448
1913.380971,0.002434
1915.309782,0.002135
1917.238594,0.001583
1919.167405,0.001429
1921.096217,0.001492
1923.025028,0.001308
1924.953839,0.001229
1926.882651,0.001227
1928.811462,0.001100
1930.740274,0.000982
1932.669085,0.000830
1934.597897,0.000644
1936.526708,0.000493
1938.455520,0.000352
1940.384331,0.000123
1942.313143,-0.000074
1944.241954,-0.000012
1946.170766,0.000126
1948.099577,0.000138
1950.028388,0.000082
1951.957200,0.000007
1953.886011,-0.000017
1955.814823,0.000001
1957.743634,0.000029
1959.672446,0.000054
1961.601257,0.000034
1963.530069,-0.000004
1965.458880,-0.000063
1967.387692,-0.000105
1969.316503,-0.000075
1971.245315,-0.000023
1973.174126,0.000038
1975.102938,0.000011
1977.031749,-0.000061
1978.960560,-0.000010
1980.889372,0.000031
1982.818183,0.000033
1984.746995,0.000027
1986.675806,-0.000044
1988.604618,-0.000079
1990.533429,-0.000148
1992.462241,-0.000221
1994.391052,-0.000171
1996.319864,-0.000132
1998.248675,-0.000077
2000.177487,-0.000019
2002.106298,-0.000046
2004.035109,-0.000075
2005.963921,-0.000089
2007.892732,-0.000094
2009.821544,-0.000098
2011.750355,-0.000093
2013.679167,-0.000065
2015.607978,-0.000105
2017.536790,-0.000160
2019.465601,-0.000110
2021.394413,-0.000026
2023.323224,-0.000013
2025.252036,-0.000041
2027.180847,-0.000063
2029.109658,-0.000102
2031.038470,-0.000114
2032.967281,-0.000076
2034.896093,-0.000045
2036.824904,-0.000023
2038.753716,-0.000033
2040.682527,-0.000064
2042.611339,-0.000065
2044.540150,-0.000041
2046.468962,-0.000034
2048.397773,-0.000059
2050.326585,-0.000036
2052.255396,-0.000013
2054.184207,-0.000071
2056.113019,-0.000111
2058.041830,-0.000120
2059.970642,-0.000089
2061.899453,-0.000035
2063.828265,-0.000122
2065.757076,-0.000226
2067.685888,-0.000150
2069.614699,-0.000038
2071.543511,-0.000035
2073.472322,-0.000085
2075.401134,-0.000090
2077.329945,-0.000061
2079.258756,-0.000077
2081.187568,-0.000122
2083.116379,-0.000131
2085.045191,-0.000083
2086.974002,-0.000020
2088.902814,-0.000002
2090.831625,0.000022
2092.760437,0.000076
2094.689248,0.000070
2096.618060,0.000016
2098.546871,-0.000006
2100.475683,0.000020
2102.404494,0.000070
2104.333305,0.000088
2106.262117,0.000104
2108.190928,0.000131
2110.119740,0.000106
2112.048551,0.000051
2113.977363,-0.000001
2115.906174,-0.000018
2117.834986,0.000036
2119.763797,0.000070
2121.692609,0.000042
2123.621420,0.000001
2125.550232,-0.000040
2127.479043,-0.000041
2129.407854,-0.000022
2131.336666,-0.000061
2133.265477,-0.000117
2135.194289,-0.000152
2137.123100,-0.000153
2139.051912,-0.000104
2140.980723,-0.000094
2142.909535,-0.000121
2144.838346,-0.000106
2146.767158,-0.000069
2148.695969,-0.000007
2150.624781,0.000022
2152.553592,-0.000023
2154.482404,-0.000006
2156.411215,0.000089
2158.340026,0.000137
2160.268838,0.000135
2162.197649,0.000137
2164.126461,0.000171
2166.055272,0.000202
2167.984084,0.000179
2169.912895,0.000132
2171.841707,0.000136
2173.770518,0.000218
2175.699330,0.000249
2177.628141,0.000227
2179.556953,0.000332
2181.485764,0.000470
2183.414575,0.000481
2185.343387,0.000466
2187.272198,0.000534
2189.201010,0.000643
2191.129821,0.000695
2193.058633,0.000742
2194.987444,0.000855
2196.916256,0.000993
2198.845067,0.001109
2200.773879,0.001175
2202.702690,0.001267
2204.631502,0.001394
2206.560313,0.001477
2208.489124,0.001574
2210.417936,0.001655
2212.346747,0.001603
2214.275559,0.001478
2216.204370,0.001325
2218.133182,0.001128
2220.061993,0.000901
2221.990805,0.000630
2223.919616,0.000504
2225.848428,0.000699
2227.777239,0.001025
2229.706051,0.001357
2231.634862,0.001701
2233.563673,0.001950
2235.492485,0.002068
2237.421296,0.002068
2239.350108,0.001965
2241.278919,0.001788
2243.207731,0.001520
2245.136542,0.001201
2247.065354,0.000900
2248.994165,0.000649
2250.922977,0.000447
2252.851788,0.000250
2254.780600,0.000105
2256.709411,0.000072
2258.638222,0.000033
2260.567034,-0.000049
2262.495845,-0.000086
2264.424657,-0.000114
2266.353468,-0.000146
2268.282280,-0.000110
2270.211091,-0.000063
2272.139903,-0.000076
2274.068714,-0.000085
2275.997526,-0.000049
2277.926337,0.000006
2279.855149,0.000089
2281.783960,0.000132
2283.712771,0.000131
2285.641583,0.000147
2287.570394,0.000153
2289.499206,0.000122
2291.428017,0.000117
2293.356829,0.000102
2295.285640,0.000084
2297.214452,0.000120
2299.143263,0.000107
2301.072075,0.000014
2303.000886,-0.000108
2304.929698,-0.000210
2306.858509,0.000044
2308.787320,0.000232
2310.716132,0.000295
2312.644943,0.000337
2314.573755,0.000378
2316.502566,0.000336
2318.431378,0.000258
2320.360189,0.000178
2322.289001,0.000079
2324.217812,0.000124
2326.146624,0.000278
2328.075435,0.000291
2330.004247,0.000216
2331.933058,0.000135
2333.861870,0.000217
2335.790681,0.000216
2337.719492,0.000204
2339.648304,0.000282
2341.577115,0.000474
2343.505927,0.000962
2345.434738,0.001895
2347.363550,0.003072
2349.292361,0.003576
2351.221173,0.002839
2353.149984,0.001585
2355.078796,0.000655
2357.007607,0.000122
2358.936419,-0.000079
2360.865230,-0.000045
2362.794041,0.000185
2364.722853,-0.000273
2366.651664,-0.000596
2368.580476,-0.000808
2370.509287,-0.000826
2372.438099,-0.000636
2374.366910,-0.000358
2376.295722,-0.000151
2378.224533,-0.000101
2380.153345,-0.000201
2382.082156,-0.000499
2384.010968,-0.000284
2385.939779,-0.000179
2387.868590,-0.000081
2389.797402,-0.000031
2391.726213,0.000002
2393.655025,0.000063
2395.583836,0.000054
2397.512648,-0.000029
2399.441459,-0.000044
2401.370271,0.000014
2403.299082,0.000026
2405.227894,0.000031
2407.156705,0.000072
2409.085517,0.000037
2411.014328,0.000045
2412.943139,0.000089
2414.871951,0.000009
2416.800762,0.000031
2418.729574,0.000111
2420.658385,0.000048
2422.587197,0.000020
2424.516008,0.000069
2426.444820,0.000102
2428.373631,0.000074
2430.302443,0.000063
2432.231254,0.000130
2434.160066,0.000099
2436.088877,0.000015
2438.017688,0.000015
2439.946500,0.000011
2441.875311,-0.000017
2443.804123,-0.000036
2445.732934,0.000006
2447.661746,0.000060
2449.590557,0.000024
2451.519369,0.000012
2453.448180,0.000073
2455.376992,0.000086
2457.305803,0.000049
2459.234615,0.000046
2461.163426,0.000046
2463.092237,0.000066
2465.021049,0.000133
2466.949860,0.000143
2468.878672,0.000119
2470.807483,0.000083
2472.736295,0.000031
2474.665106,0.000073
2476.593918,0.000116
2478.522729,0.000098
2480.451541,0.000099
2482.380352,0.000079
2484.309164,0.000021
2486.237975,0.000009
2488.166786,0.000044
2490.095598,0.000020
2492.024409,0.000010
2493.953221,0.000047
2495.882032,0.000035
2497.810844,0.000050
2499.739655,0.000076
2501.668467,0.000080
2503.597278,0.000095
2505.526090,0.000079
2507.454901,0.000074
2509.383713,0.000063
2511.312524,0.000021
2513.241336,-0.000016
2515.170147,-0.000072
2517.098958,-0.000093
2519.027770,-0.000065
2520.956581,-0.000055
2522.885393,-0.000077
2524.814204,-0.000089
2526.743016,-0.000029
2528.671827,0.000068
2530.600639,0.000099
2532.529450,0.000010
2534.458262,-0.000096
2536.387073,-0.000080
2538.315885,-0.000018
2540.244696,-0.000027
2542.173507,-0.000096
2544.102319,-0.000146
2546.031130,-0.000134
2547.959942,-0.000135
2549.888753,-0.000144
2551.817565,-0.000094
2553.746376,-0.000071
2555.675188,-0.000061
2557.603999,0.000000
2559.532811,0.000023
2561.461622,-0.000022
2563.390434,-0.000083
2565.319245,-0.000129
2567.248056,-0.000149
2569.176868,-0.000138
2571.105679,-0.000104
2573.034491,-0.000053
2574.963302,-0.000005
2576.892114,-0.000061
2578.820925,-0.000118
2580.749737,-0.000032
2582.678548,0.000007
2584.607360,-0.000047
2586.536171,-0.000057
2588.464983,-0.000076
2590.393794,-0.000147
2592.322605,-0.000192
2594.251417,-0.000152
2596.180228,-0.000117
2598.109040,-0.000139
2600.037851,-0.000136
2601.966663,-0.000094
2603.895474,-0.000072
2605.824286,-0.000081
2607.753097,-0.000092
2609.681909,-0.000156
2611.610720,-0.000217
2613.539532,-0.000164
2615.468343,-0.000142
2617.397154,-0.000164
2619.325966,-0.000119
2621.254777,-0.000112
2623.183589,-0.000129
2625.112400,-0.000068
2627.041212,-0.000023
2628.970023,-0.000114
2630.898835,-0.000188
2632.827646,-0.000112
2634.756458,-0.000086
2636.685269,-0.000168
2638.614081,-0.000199
2640.542892,-0.000146
2642.471703,-0.000105
2644.400515,-0.000186
2646.329326,-0.000266
2648.258138,-0.000233
2650.186949,-0.000219
2652.115761,-0.000195
2654.044572,-0.000095
2655.973384,-0.000064
2657.902195,-0.000145
2659.831007,-0.000227
2661.759818,-0.000226
2663.688630,-0.000169
2665.617441,-0.000160
2667.546253,-0.000169
2669.475064,-0.000132
2671.403875,-0.000087
2673.332687,-0.000098
2675.261498,-0.000160
2677.190310,-0.000166
2679.119121,-0.000162
2681.047933,-0.000183
2682.976744,-0.000125
2684.905556,-0.000124
2686.834367,-0.000180
2688.763179,-0.000102
2690.691990,-0.000009
2692.620802,-0.000024
2694.549613,-0.000101
2696.478424,-0.000180
2698.407236,-0.000154
2700.336047,-0.000077
2702.264859,-0.000119
2704.193670,-0.000170
2706.122482,-0.000127
2708.051293,-0.000122
2709.980105,-0.000121
2711.908916,-0.000083
2713.837728,-0.000116
2715.766539,-0.000156
2717.695351,-0.000145
2719.624162,-0.000157
2721.552973,-0.000153
2723.481785,-0.000156
2725.410596,-0.000198
2727.339408,-0.000154
2729.268219,-0.000101
2731.197031,-0.000112
2733.125842,-0.000047
2735.054654,-0.000012
2736.983465,-0.000078
2738.912277,-0.000094
2740.841088,-0.000083
2742.769900,-0.000066
2744.698711,-0.000032
2746.627522,-0.000046
2748.556334,-0.000059
2750.485145,-0.000063
2752.413957,-0.000112
2754.342768,-0.000151
2756.271580,-0.000143
2758.200391,-0.000122
2760.129203,-0.000137
2762.058014,-0.000163
2763.986826,-0.000121
2765.915637,-0.000074
2767.844449,-0.000053
2769.773260,-0.000064
2771.702071,-0.000156
2773.630883,-0.000185
2775.559694,-0.000075
2777.488506,-0.000029
2779.417317,-0.000122
2781.346129,-0.000161
2783.274940,-0.000118
2785.203752,-0.000108
2787.132563,-0.000085
2789.061375,-0.000071
2790.990186,-0.000092
2792.918998,-0.000085
2794.847809,-0.000080
2796.776620,-0.000060
2798.705432,-0.000089
2800.634243,-0.000211
2802.563055,-0.000236
2804.491866,-0.000153
2806.420678,-0.000097
2808.349489,-0.000062
2810.278301,-0.000030
2812.207112,-0.000016
2814.135924,-0.000067
2816.064735,-0.000147
2817.993547,-0.000147
2819.922358,-0.000131
2821.851169,-0.000164
2823.779981,-0.000207
2825.708792,-0.000234
2827.637604,-0.000163
2829.566415,-0.000062
2831.495227,-0.000038
2833.424038,-0.000047
2835.352850,-0.000103
2837.281661,-0.000130
2839.210473,-0.000077
2841.139284,-0.000005
2843.068096,0.000082
2844.996907,0.000144
2846.925719,0.000161
2848.854530,0.000162
2850.783341,0.000176
2852.712153,0.000279
2854.640964,0.000398
2856.569776,0.000494
2858.498587,0.000634
2860.427399,0.000790
2862.356210,0.001005
2864.285022,0.001297
2866.213833,0.001649
2868.142645,0.002105
2870.071456,0.002556
2872.000268,0.002954
2873.929079,0.003430
2875.857890,0.003957
2877.786702,0.004442
2879.715513,0.004890
2881.644325,0.005385
2883.573136,0.005990
2885.501948,0.006506
2887.430759,0.006796
2889.359571,0.007021
2891.288382,0.007105
2893.217194,0.006918
2895.146005,0.006579
2897.074817,0.006168
2899.003628,0.005729
2900.932439,0.005266
2902.861251,0.004633
2904.790062,0.003704
2906.718874,0.003286
2908.647685,0.004521
2910.576497,0.006756
2912.505308,0.008721
2914.434120,0.010147
2916.362931,0.010956
2918.291743,0.011142
2920.220554,0.010667
2922.149366,0.009533
2924.078177,0.008083
2926.006988,0.006462
2927.935800,0.004747
2929.864611,0.003137
2931.793423,0.001770
2933.722234,0.000809
2935.651046,0.000264
2937.579857,-0.000016
2939.508669,-0.000092
2941.437480,-0.000122
2943.366292,-0.000181
2945.295103,-0.000120
2947.223915,-0.000097
2949.152726,-0.000192
2951.081537,-0.000169
2953.010349,-0.000079
2954.939160,-0.000082
2956.867972,-0.000030
2958.796783,0.000093
2960.725595,0.000043
2962.654406,-0.000049
2964.583218,-0.000007
2966.512029,0.000001
2968.440841,-0.000007
2970.369652,0.000012
2972.298464,0.000002
2974.227275,0.000062
2976.156086,0.000193
2978.084898,0.000217
2980.013709,0.000148
2981.942521,0.000132
2983.871332,0.000134
2985.800144,0.000123
2987.728955,0.000056
2989.657767,-0.000008
2991.586578,0.000055
2993.515390,0.000069
2995.444201,-0.000012
2997.373013,-0.000015
2999.301824,0.000106
3001.230635,0.000180
3003.159447,0.000069
3005.088258,0.000066
3007.017070,0.000204
3008.945881,0.000123
3010.874693,-0.000030
3012.803504,0.000010
3014.732316,0.000110
3016.661127,0.000127
3018.589939,0.000049
3020.518750,0.000027
3022.447562,0.000113
3024.376373,0.000091
3026.305185,0.000003
3028.233996,0.000058
3030.162807,0.000162
3032.091619,0.000158
3034.020430,0.000093
3035.949242,0.000113
3037.878053,0.000172
3039.806865,0.000154
3041.735676,0.000144
3043.664488,0.000141
3045.593299,0.000152
3047.522111,0.000171
3049.450922,0.000093
3051.379734,0.000095
3053.308545,0.000199
3055.237356,0.000178
3057.166168,0.000130
3059.094979,0.000123
3061.023791,0.000119
3062.952602,0.000150
3064.881414,0.000181
3066.810225,0.000177
3068.739037,0.000113
3070.667848,0.000093
3072.596660,0.000135
3074.525471,0.000107
3076.454283,0.000100
3078.383094,0.000150
3080.311905,0.000144
3082.240717,0.000075
3084.169528,0.000112
3086.098340,0.000264
3088.027151,0.000255
3089.955963,0.000134
3091.884774,0.000099
3093.813586,0.000108
3095.742397,0.000059
3097.671209,-0.000045
3099.600020,0.000024
3101.528832,0.000119
3103.457643,-0.000002
3105.386454,0.000028
3107.315266,0.000243
3109.244077,0.000292
3111.172889,0.000214
3113.101700,0.000103
3115.030512,0.000013
3116.959323,0.000024
3118.888135,0.000046
3120.816946,0.000094
3122.745758,0.000208
3124.674569,0.000168
3126.603381,0.000072
3128.532192,0.000154
3130.461003,0.000186
3132.389815,0.000115
3134.318626,0.000076
3136.247438,0.000022
3138.176249,-0.000072
3140.105061,-0.000176
3142.033872,-0.000142
3143.962684,-0.000027
3145.891495,0.000041
3147.820307,0.000127
3149.749118,0.000121
3151.677930,0.000032
3153.606741,-0.000034
3155.535552,-0.000107
3157.464364,-0.000130
3159.393175,-0.000100
3161.321987,-0.000010
3163.250798,0.000050
3165.179610,-0.000037
3167.108421,-0.000057
3169.037233,-0.000005
3170.966044,-0.000111
3172.894856,-0.000183
3174.823667,-0.000070
3176.752479,-0.000040
3178.681290,-0.000074
3180.610102,-0.000026
3182.538913,-0.000054
3184.467724,-0.000099
3186.396536,-0.000067
3188.325347,-0.000051
3190.254159,0.000013
3192.182970,0.000111
3194.111782,0.000098
3196.040593,0.000056
3197.969405,0.000087
3199.898216,0.000080
3201.827028,0.000039
3203.755839,0.000004
3205.684651,-0.000065
3207.613462,-0.000068
3209.542273,-0.000012
3211.471085,-0.000024
3213.399896,-0.000108
3215.328708,-0.000163
3217.257519,-0.000180
3219.186331,-0.000201
3221.115142,-0.000158
3223.043954,-0.000140
3224.972765,-0.000174
3226.901577,-0.000151
3228.830388,-0.000172
3230.759200,-0.000200
3232.688011,-0.000189
3234.616822,-0.000187
3236.545634,-0.000126
3238.474445,-0.000078
3240.403257,-0.000079
3242.332068,-0.000021
3244.260880,0.000036
3246.189691,0.000037
3248.118503,0.000088
3250.047314,0.000065
3251.976126,-0.000132
3253.904937,-0.000195
3255.833749,-0.000101
3257.762560,-0.000113
3259.691371,-0.000250
3261.620183,-0.000343
3263.548994,-0.000243
3265.477806,-0.000060
3267.406617,0.000088
3269.335429,0.000151
3271.264240,0.000053
3273.193052,-0.000070
3275.121863,-0.000091
3277.050675,-0.000109
3278.979486,-0.000200
3280.908298,-0.000220
3282.837109,-0.000157
3284.765920,-0.000107
3286.694732,-0.000035
3288.623543,-0.000120
3290.552355,-0.000310
3292.481166,-0.000273
3294.409978,-0.000140
3296.338789,-0.000095
3298.267601,-0.000102
3300.196412,-0.000171
3302.125224,-0.000211
3304.054035,-0.000211
3305.982847,-0.000261
3307.911658,-0.000237
3309.840469,-0.000176
3311.769281,-0.000243
3313.698092,-0.000271
3315.626904,-0.000264
3317.555715,-0.000302
3319.484527,-0.000247
3321.413338,-0.000179
3323.342150,-0.000222
3325.270961,-0.000244
3327.199773,-0.000120
3329.128584,-0.000035
3331.057396,-0.000134
3332.986207,-0.000146
3334.915018,0.000002
3336.843830,0.000015
3338.772641,-0.000201
3340.701453,-0.000424
3342.630264,-0.000312
3344.559076,-0.000053
3346.487887,-0.000102
3348.416699,-0.000163
3350.345510,-0.000096
3352.274322,-0.000222
3354.203133,-0.000295
3356.131945,-0.000199
3358.060756,-0.000208
3359.989568,-0.000206
3361.918379,-0.000073
3363.847190,0.000001
3365.776002,0.000004
3367.704813,0.000012
3369.633625,-0.000020
3371.562436,-0.000027
3373.491248,0.000038
3375.420059,0.000136
3377.348871,0.000145
3379.277682,0.000011
3381.206494,0.000042
3383.135305,0.000228
3385.064117,0.000143
3386.992928,-0.000078
3388.921739,0.000037
3390.850551,0.000263
3392.779362,0.000261
3394.708174,0.000222
3396.636985,0.000168
3398.565797,0.000129
3400.494608,0.000159
3402.423420,0.000057
3404.352231,-0.000071
3406.281043,-0.000106
3408.209854,-0.000043
3410.138666,0.000165
3412.067477,0.000247
3413.996288,0.000084
3415.925100,0.000012
3417.853911,0.000150
3419.782723,0.000272
3421.711534,0.000202
3423.640346,-0.000032
3425.569157,-0.000165
3427.497969,-0.000087
3429.426780,0.000008
3431.355592,0.000011
3433.284403,0.000023
3435.213215,0.000142
3437.142026,0.000179
3439.070837,0.000132
3440.999649,0.000238
3442.928460,0.000145
3444.857272,-0.000204
3446.786083,-0.000220
3448.714895,0.000032
3450.643706,0.000253
3452.572518,0.000382
3454.501329,0.000449
3456.430141,0.000549
3458.358952,0.000456
3460.287764,0.000362
3462.216575,0.000495
3464.145386,0.000496
3466.074198,0.000464
3468.003009,0.000470
3469.931821,0.000385
3471.860632,0.000399
3473.789444,0.000489
3475.718255,0.000538
3477.647067,0.000543
3479.575878,0.000497
3481.504690,0.000423
3483.433501,0.000309
3485.362313,0.000219
3487.291124,0.000296
3489.219935,0.000443
3491.148747,0.000472
3493.077558,0.000495
3495.006370,0.000545
3496.935181,0.000506
3498.863993,0.000466
3500.792804,0.000490
3502.721616,0.000491
3504.650427,0.000515
3506.579239,0.000619
3508.508050,0.000623
3510.436862,0.000459
3512.365673,0.000330
3514.294484,0.000456
3516.223296,0.000695
3518.152107,0.000790
3520.080919,0.000766
3522.009730,0.000707
3523.938542,0.000791
3525.867353,0.000880
3527.796165,0.000749
3529.724976,0.000695
3531.653788,0.000718
3533.582599,0.000757
3535.511411,0.000886
3537.440222,0.000964
3539.369034,0.000969
3541.297845,0.000893
3543.226656,0.000811
3545.155468,0.000729
3547.084279,0.000680
3549.013091,0.000914
3550.941902,0.001121
3552.870714,0.001089
3554.799525,0.001242
3556.728337,0.001547
3558.657148,0.001727
3560.585960,0.001793
3562.514771,0.001771
3564.443583,0.001832
3566.372394,0.001783
3568.301205,0.001655
3570.230017,0.002224
3572.158828,0.002993
3574.087640,0.003253
3576.016451,0.003339
3577.945263,0.003233
3579.874074,0.002850
3581.802886,0.002352
3583.731697,0.001981
3585.660509,0.001852
3587.589320,0.001893
3589.518132,0.002260
3591.446943,0.002344
3593.375754,0.001979
3595.304566,0.001995
3597.233377,0.002330
3599.162189,0.002669
3601.091000,0.003044
3603.019812,0.003325
3604.948623,0.003257
3606.877435,0.002719
3608.806246,0.002224
3610.735058,0.002134
3612.663869,0.001981
3614.592681,0.001750
3616.521492,0.001766
3618.450303,0.001556
3620.379115,0.001324
3622.307926,0.001473
3624.236738,0.001550
3626.165549,0.001548
3628.094361,0.000791
3630.023172,-0.000075
3631.951984,0.000731
3633.880795,0.001681
3635.809607,0.001840
3637.738418,0.001968
3639.667230,0.002026
3641.596041,0.001926
3643.524852,0.001784
3645.453664,0.001345
3647.382475,0.000588
3649.311287,-0.000217
3651.240098,-0.000358
3653.168910,0.000746
3655.097721,0.001530
3657.026533,0.001271
3658.955344,0.001572
3660.884156,0.002161
3662.812967,0.002165
3664.741779,0.001880
3666.670590,0.001670
3668.599401,0.001156
3670.528213,0.000070
3672.457024,0.000074
3674.385836,0.000367
3676.314647,-0.000134
3678.243459,0.000489
3680.172270,0.001492
3682.101082,0.001720
3684.029893,0.001801
3685.958705,0.001883
3687.887516,0.001417
3689.816328,0.000626
3691.745139,0.000894
3693.673951,0.001818
3695.602762,0.002129
3697.531573,0.002064
3699.460385,0.002163
3701.389196,0.002092
3703.318008,0.001859
3705.246819,0.001877
3707.175631,0.001703
3709.104442,0.001314
3711.033254,0.000987
3712.962065,0.000832
3714.890877,0.001349
3716.819688,0.001930
3718.748500,0.001993
3720.677311,0.001835
3722.606122,0.001742
3724.534934,0.001736
3726.463745,0.001634
3728.392557,0.001667
3730.321368,0.001572
3732.250180,0.000875
3734.178991,0.000333
3736.107803,0.000428
3738.036614,0.000627
3739.965426,0.000978
3741.894237,0.001407
3743.823049,0.000609
3745.751860,-0.000572
3747.680671,-0.000077
3749.609483,0.000170
3751.538294,-0.000360
3753.467106,0.000213
3755.395917,0.001115
3757.324729,0.001511
3759.253540,0.001515
3761.182352,0.001571
3763.111163,0.001980
3765.039975,0.002067
3766.968786,0.001931
3768.897598,0.001838
3770.826409,0.001711
3772.755220,0.001973
3774.684032,0.002189
3776.612843,0.002111
3778.541655,0.001991
3780.470466,0.001855
3782.399278,0.002021
3784.328089,0.002241
3786.256901,0.002262
3788.185712,0.002397
3790.114524,0.002363
3792.043335,0.002176
3793.972147,0.002181
3795.900958,0.001614
3797.829769,0.001118
3799.758581,0.001301
3801.687392,0.000643
3803.616204,0.000584
3805.545015,0.001299
3807.473827,0.001075
3809.402638,0.001263
3811.331450,0.001779
3813.260261,0.002083
3815.189073,0.001755
3817.117884,0.000641
3819.046696,0.000678
3820.975507,0.000561
3822.904318,0.000181
3824.833130,0.000994
3826.761941,0.001227
3828.690753,0.001121
3830.619564,0.001251
3832.548376,0.000787
3834.477187,0.000621
3836.405999,0.000677
3838.334810,0.000039
3840.263622,-0.000176
3842.192433,0.000478
3844.121245,0.001072
3846.050056,0.001328
3847.978867,0.001113
3849.907679,0.000731
3851.836490,0.000298
3853.765302,-0.000904
3855.694113,-0.001053
3857.622925,0.000420
3859.551736,0.001203
3861.480548,0.001051
3863.409359,0.000652
3865.338171,0.000225
3867.266982,0.000483
3869.195794,0.000495
3871.124605,0.000155
3873.053417,0.000506
3874.982228,0.000501
3876.911039,0.000577
3878.839851,0.000843
3880.768662,0.000236
3882.697474,0.000273
3884.626285,0.000487
3886.555097,-0.000078
3888.483908,0.000305
3890.412720,0.000772
3892.341531,0.000373
3894.270343,0.000278
3896.199154,0.000320
3898.127966,0.000001
3900.056777,-0.000282
3901.985588,-0.000282
3903.914400,-0.000234
3905.843211,-0.000069
3907.772023,0.000440
3909.700834,0.000775
3911.629646,0.000697
3913.558457,0.000634
3915.487269,0.000613
3917.416080,0.000474
3919.344892,0.000382
3921.273703,0.000509
3923.202515,0.000596
3925.131326,0.000405
3927.060137,0.000245
3928.988949,0.000260
3930.917760,0.000212
3932.846572,0.000139
3934.775383,0.000222
3936.704195,0.000236
3938.633006,0.000172
3940.561818,0.000249
3942.490629,0.000228
3944.419441,0.000227
3946.348252,0.000275
3948.277064,0.000045
3950.205875,-0.000020
3952.134686,0.000097
3954.063498,0.000058
3955.992309,0.000097
3957.921121,0.000113
3959.849932,0.000066
3961.778744,0.000011
3963.707555,-0.000106
3965.636367,-0.000042
3967.565178,0.000078
3969.493990,0.000044
3971.422801,-0.000008
3973.351613,-0.000088
3975.280424,-0.000149
3977.209235,-0.000154
3979.138047,-0.000019
3981.066858,0.000089
3982.995670,-0.000057
3984.924481,-0.000031
3986.853293,0.000150
3988.782104,0.000068
3990.710916,-0.000081
3992.639727,-0.000065
3994.568539,0.000036
3996.497350,-0.000004
3998.426162,-0.000085
4000.354973,-0.000055
