XLabel,Wavenumber
YLabel,Absorbance
FileType,Absorbance
DisplayDirection,20300
PeakDirection,20312
899.790547,0.000685
900.272750,0.001148
900.754953,0.001430
901.237156,0.001948
901.719359,0.002969
902.201562,0.002352
902.683764,0.001104
903.165967,0.001407
903.648170,0.002005
904.130373,0.002108
904.612576,0.002825
905.094779,0.002603
905.576982,0.000940
906.059184,0.000366
906.541387,-0.000063
907.023590,-0.000892
907.505793,-0.000357
907.987996,0.000274
908.470199,0.000335
908.952402,0.000540
909.434605,0.000590
909.916807,0.000074
910.399010,-0.000941
910.881213,-0.000721
911.363416,0.000788
911.845619,0.001115
912.327822,0.000152
912.810025,-0.000387
913.292227,-0.000395
913.774430,-0.000349
914.256633,-0.000042
914.738836,-0.000070
915.221039,-0.000231
915.703242,0.000239
916.185445,0.000510
916.667648,0.000307
917.149850,-0.000264
917.632053,-0.000388
918.114256,0.000725
918.596459,0.001160
919.078662,0.000418
919.560865,0.000007
920.043068,-0.000073
920.525270,0.000128
921.007473,0.000859
921.489676,0.001519
921.971879,0.001346
922.454082,0.001147
922.936285,0.001959
923.418488,0.002466
923.900690,0.001959
924.382893,0.001188
924.865096,0.000217
925.347299,-0.000149
925.829502,0.000168
926.311705,-0.000435
926.793908,-0.000959
927.276111,-0.000216
927.758313,-0.000138
928.240516,-0.000042
928.722719,0.001152
929.204922,0.001126
929.687125,0.000804
930.169328,0.001235
930.651531,0.000952
931.133733,0.000996
931.615936,0.001273
932.098139,0.001090
932.580342,0.001059
933.062545,0.000569
933.544748,-0.000259
934.026951,-0.001147
934.509154,-0.001209
934.991356,0.000290
935.473559,0.001023
935.955762,0.000543
936.437965,0.000911
936.920168,0.001777
937.402371,0.001367
937.884574,-0.000388
938.366776,-0.001135
938.848979,0.000258
939.331182,0.001252
939.813385,0.001098
940.295588,0.001510
940.777791,0.001585
941.259994,0.001068
941.742197,0.001303
942.224399,0.001231
942.706602,0.000225
943.188805,-0.000439
943.671008,-0.000233
944.153211,0.000379
944.635414,0.000939
945.117617,0.001112
945.599819,0.000887
946.082022,0.000477
946.564225,0.000011
947.046428,0.000088
947.528631,0.000427
948.010834,0.000153
948.493037,-0.000275
948.975240,-0.000349
949.457442,0.000171
949.939645,0.000638
950.421848,0.000212
950.904051,-0.000118
951.386254,0.000147
951.868457,0.000412
952.350660,0.000417
952.832862,0.000113
953.315065,-0.000148
953.797268,0.000007
954.279471,0.000447
954.761674,0.000710
955.243877,0.000538
955.726080,0.000286
956.208282,0.000447
956.690485,0.000634
957.172688,0.000261
957.654891,0.000007
958.137094,0.000413
958.619297,0.000660
959.101500,0.000507
959.583703,0.000357
960.065905,0.000007
960.548108,-0.000055
961.030311,0.000340
961.512514,0.000338
961.994717,0.000280
962.476920,0.000311
962.959123,0.000049
963.441325,-0.000031
963.923528,0.000025
964.405731,-0.000054
964.887934,-0.000073
965.370137,-0.000084
965.852340,0.000017
966.334543,0.000394
966.816746,0.000524
967.298948,0.000539
967.781151,0.000766
968.263354,0.000452
968.745557,0.000104
969.227760,0.000110
969.709963,-0.000183
970.192166,0.000001
970.674368,0.000366
971.156571,-0.000119
971.638774,-0.000399
972.120977,-0.000128
972.603180,-0.000331
973.085383,-0.000095
973.567586,0.001206
974.049789,0.001288
974.531991,0.000173
975.014194,-0.000150
975.496397,-0.000144
975.978600,0.000069
976.460803,0.000704
976.943006,0.000892
977.425209,0.000567
977.907411,0.000158
978.389614,-0.000099
978.871817,-0.000222
979.354020,-0.000240
979.836223,-0.000193
980.318426,-0.000234
980.800629,-0.000127
981.282831,0.000118
981.765034,0.000300
982.247237,0.000400
982.729440,0.000377
983.211643,0.000463
983.693846,0.000487
984.176049,0.000334
984.658252,0.000454
985.140454,0.000492
985.622657,0.000260
986.104860,0.000183
986.587063,0.000060
987.069266,0.000117
987.551469,0.000445
988.033672,0.000266
988.515874,-0.000072
988.998077,-0.000065
989.480280,-0.000217
989.962483,-0.000351
990.444686,-0.000131
990.926889,0.000027
991.409092,-0.000048
991.891295,-0.000092
992.373497,-0.000070
992.855700,-0.000177
993.337903,-0.000262
993.820106,-0.000206
994.302309,-0.000176
994.784512,-0.000129
995.266715,-0.000089
995.748917,-0.000139
996.231120,-0.000171
996.713323,-0.000109
997.195526,0.000031
997.677729,0.000119
998.159932,0.000129
998.642135,0.000135
999.124338,0.000120
999.606540,0.000035
1000.088743,-0.000069
1000.570946,-0.000018
1001.053149,0.000100
1001.535352,0.000062
1002.017555,0.000005
1002.499758,0.000040
1002.981960,0.000053
1003.464163,0.000032
1003.946366,-0.000022
1004.428569,-0.000083
1004.910772,-0.000095
1005.392975,-0.000189
1005.875178,-0.000347
1006.357381,-0.000393
1006.839583,-0.000292
1007.321786,-0.000105
1007.803989,-0.000021
1008.286192,0.000006
1008.768395,0.000083
1009.250598,0.000107
1009.732801,0.000122
1010.215003,0.000071
1010.697206,-0.000018
1011.179409,0.000008
1011.661612,-0.000079
1012.143815,-0.000257
1012.626018,-0.000245
1013.108221,-0.000089
1013.590423,0.000002
1014.072626,-0.000022
1014.554829,-0.000042
1015.037032,-0.000105
1015.519235,-0.000151
1016.001438,-0.000104
1016.483641,-0.000165
1016.965844,-0.000099
1017.448046,0.000104
1017.930249,0.000023
1018.412452,-0.000108
1018.894655,-0.000165
1019.376858,-0.000135
1019.859061,0.000175
1020.341264,0.000307
1020.823466,0.000194
1021.305669,0.000236
1021.787872,0.000133
1022.270075,-0.000214
1022.752278,-0.000329
1023.234481,0.000004
1023.716684,0.000384
1024.198887,0.000231
1024.681089,-0.000173
1025.163292,-0.000244
1025.645495,-0.000153
1026.127698,-0.000099
1026.609901,-0.000026
1027.092104,-0.000050
1027.574307,-0.000151
1028.056509,-0.000138
1028.538712,-0.000060
1029.020915,-0.000024
1029.503118,-0.000043
1029.985321,-0.000180
1030.467524,-0.000222
1030.949727,-0.000056
1031.431930,-0.000020
1031.914132,-0.000048
1032.396335,-0.000006
1032.878538,-0.000125
1033.360741,-0.000188
1033.842944,0.000028
1034.325147,0.000215
1034.807350,0.000158
1035.289552,-0.000014
1035.771755,-0.000107
1036.253958,-0.000186
1036.736161,-0.000255
1037.218364,-0.000212
1037.700567,-0.000200
1038.182770,-0.000192
1038.664973,-0.000118
1039.147175,-0.000180
1039.629378,-0.000314
1040.111581,-0.000226
1040.593784,-0.000002
1041.075987,0.000097
1041.558190,0.000081
1042.040393,0.000004
1042.522595,-0.000024
1043.004798,0.000086
1043.487001,0.000172
1043.969204,0.000159
1044.451407,-0.000014
1044.933610,-0.000294
1045.415813,-0.000337
1045.898015,-0.000179
1046.380218,-0.000105
1046.862421,-0.000085
1047.344624,-0.000056
1047.826827,-0.000163
1048.309030,-0.000281
1048.791233,-0.000168
1049.273436,-0.000041
1049.755638,-0.000042
1050.237841,-0.000035
1050.720044,-0.000018
1051.202247,-0.000008
1051.684450,0.000058
1052.166653,0.000147
1052.648856,0.000071
1053.131058,-0.000167
1053.613261,-0.000274
1054.095464,-0.000081
1054.577667,0.000062
1055.059870,-0.000071
1055.542073,-0.000033
1056.024276,0.000079
1056.506479,-0.000097
1056.988681,-0.000185
1057.470884,-0.000143
1057.953087,-0.000229
1058.435290,-0.000298
1058.917493,-0.000223
1059.399696,-0.000069
1059.881899,0.000025
1060.364101,0.000084
1060.846304,0.000071
1061.328507,-0.000082
1061.810710,-0.000135
1062.292913,-0.000087
1062.775116,-0.000148
1063.257319,-0.000210
1063.739522,-0.000113
1064.221724,0.000031
1064.703927,0.000047
1065.186130,0.000082
1065.668333,0.000138
1066.150536,0.000049
1066.632739,0.000005
1067.114942,-0.000023
1067.597144,-0.000186
1068.079347,-0.000299
1068.561550,-0.000242
1069.043753,-0.000110
1069.525956,-0.000084
1070.008159,-0.000012
1070.490362,0.000116
1070.972564,0.000017
1071.454767,-0.000032
1071.936970,0.000058
1072.419173,0.000055
1072.901376,0.000061
1073.383579,0.000101
1073.865782,0.000123
1074.347985,0.000065
1074.830187,0.000022
1075.312390,0.000110
1075.794593,0.000122
1076.276796,0.000030
1076.758999,-0.000096
1077.241202,-0.000163
1077.723405,-0.000061
1078.205607,0.000008
1078.687810,-0.000012
1079.170013,-0.000009
1079.652216,0.000027
1080.134419,0.000049
1080.616622,0.000040
1081.098825,0.000097
1081.581028,0.000161
1082.063230,0.000083
1082.545433,-0.000039
1083.027636,-0.000048
1083.509839,0.000001
1083.992042,0.000043
1084.474245,0.000118
1084.956448,0.000095
1085.438650,-0.000026
1085.920853,-0.000075
1086.403056,-0.000086
1086.885259,-0.000067
1087.367462,-0.000005
1087.849665,0.000057
1088.331868,0.000060
1088.814071,-0.000048
1089.296273,-0.000115
1089.778476,-0.000035
1090.260679,0.000010
1090.742882,-0.000088
1091.225085,-0.000144
1091.707288,-0.000071
1092.189491,0.000012
1092.671693,0.000024
1093.153896,-0.000003
1093.636099,0.000018
1094.118302,0.000007
1094.600505,-0.000066
1095.082708,-0.000063
1095.564911,-0.000004
1096.047114,-0.000021
1096.529316,-0.000108
1097.011519,-0.000077
1097.493722,-0.000033
1097.975925,-0.000091
1098.458128,-0.000005
1098.940331,0.000052
1099.422534,-0.000027
1099.904736,0.000023
1100.386939,0.000045
1100.869142,-0.000052
1101.351345,-0.000069
1101.833548,-0.000009
1102.315751,0.000042
1102.797954,0.000084
1103.280156,0.000068
1103.762359,-0.000034
1104.244562,-0.000086
1104.726765,-0.000026
1105.208968,0.000033
1105.691171,-0.000011
1106.173374,-0.000119
1106.655577,-0.000194
1107.137779,-0.000216
1107.619982,-0.000190
1108.102185,-0.000164
1108.584388,-0.000097
1109.066591,0.000016
1109.548794,0.000023
1110.030997,-0.000023
1110.513199,-0.000058
1110.995402,-0.000104
1111.477605,-0.000075
1111.959808,-0.000011
1112.442011,0.000038
1112.924214,0.000055
1113.406417,-0.000002
1113.888620,-0.000057
1114.370822,-0.000132
1114.853025,-0.000205
1115.335228,-0.000151
1115.817431,-0.000111
1116.299634,-0.000135
1116.781837,-0.000072
1117.264040,0.000008
1117.746242,0.000021
1118.228445,-0.000002
1118.710648,-0.000069
1119.192851,-0.000136
1119.675054,-0.000131
1120.157257,-0.000045
1120.639460,0.000027
1121.121663,0.000023
1121.603865,-0.000009
1122.086068,-0.000111
1122.568271,-0.000178
1123.050474,-0.000092
1123.532677,-0.000084
1124.014880,-0.000122
1124.497083,-0.000050
1124.979285,0.000018
1125.461488,0.000020
1125.943691,-0.000050
1126.425894,-0.000054
1126.908097,0.000001
1127.390300,-0.000065
1127.872503,-0.000152
1128.354706,-0.000124
1128.836908,0.000039
1129.319111,0.000122
1129.801314,0.000013
1130.283517,-0.000006
1130.765720,0.000050
1131.247923,0.000048
1131.730126,-0.000017
1132.212328,-0.000147
1132.694531,-0.000144
1133.176734,-0.000024
1133.658937,-0.000040
1134.141140,-0.000133
1134.623343,-0.000106
1135.105546,-0.000081
1135.587748,-0.000173
1136.069951,-0.000150
1136.552154,-0.000040
1137.034357,-0.000078
1137.516560,-0.000103
1137.998763,-0.000069
1138.480966,-0.000152
1138.963169,-0.000157
1139.445371,-0.000027
1139.927574,-0.000023
1140.409777,-0.000013
1140.891980,0.000039
1141.374183,-0.000076
1141.856386,-0.000153
1142.338589,-0.000135
1142.820791,-0.000200
1143.302994,-0.000228
1143.785197,-0.000160
1144.267400,-0.000111
1144.749603,-0.000100
1145.231806,-0.000078
1145.714009,-0.000090
1146.196212,-0.000199
1146.678414,-0.000268
1147.160617,-0.000212
1147.642820,-0.000129
1148.125023,-0.000097
1148.607226,-0.000136
1149.089429,-0.000193
1149.571632,-0.000203
1150.053834,-0.000117
1150.536037,-0.000004
1151.018240,-0.000006
1151.500443,-0.000058
1151.982646,-0.000091
1152.464849,-0.000120
1152.947052,-0.000105
1153.429255,-0.000069
1153.911457,-0.000040
1154.393660,-0.000017
1154.875863,-0.000005
1155.358066,0.000007
1155.840269,0.000012
1156.322472,-0.000004
1156.804675,-0.000019
1157.286877,-0.000030
1157.769080,-0.000083
1158.251283,-0.000110
1158.733486,-0.000048
1159.215689,0.000003
1159.697892,0.000031
1160.180095,0.000046
1160.662298,-0.000019
1161.144500,-0.000051
1161.626703,0.000010
1162.108906,0.000018
1162.591109,0.000020
1163.073312,0.000048
1163.555515,0.000055
1164.037718,0.000106
1164.519920,0.000100
1165.002123,0.000071
1165.484326,0.000139
1165.966529,0.000194
1166.448732,0.000175
1166.930935,0.000069
1167.413138,-0.000065
1167.895340,-0.000124
1168.377543,-0.000083
1168.859746,0.000005
1169.341949,0.000011
1169.824152,-0.000014
1170.306355,0.000027
1170.788558,0.000033
1171.270761,0.000014
1171.752963,0.000028
1172.235166,-0.000018
1172.717369,-0.000059
1173.199572,-0.000005
1173.681775,0.000012
1174.163978,-0.000028
1174.646181,-0.000087
1175.128383,-0.000176
1175.610586,-0.000209
1176.092789,-0.000154
1176.574992,-0.000112
1177.057195,-0.000075
1177.539398,-0.000009
1178.021601,-0.000060
1178.503804,-0.000045
1178.986006,0.000143
1179.468209,0.000151
1179.950412,0.000052
1180.432615,-0.000000
1180.914818,-0.000019
1181.397021,0.000043
1181.879224,0.000068
1182.361426,0.000071
1182.843629,0.000065
1183.325832,0.000072
1183.808035,0.000135
1184.290238,0.000100
1184.772441,0.000085
1185.254644,0.000189
1185.736847,0.000206
1186.219049,0.000126
1186.701252,0.000084
1187.183455,0.000097
1187.665658,0.000129
1188.147861,0.000214
1188.630064,0.000278
1189.112267,0.000162
1189.594469,0.000026
1190.076672,0.000073
1190.558875,0.000163
1191.041078,0.000181
1191.523281,0.000198
1192.005484,0.000255
1192.487687,0.000353
1192.969889,0.000423
1193.452092,0.000391
1193.934295,0.000354
1194.416498,0.000375
1194.898701,0.000308
1195.380904,0.000218
1195.863107,0.000223
1196.345310,0.000144
1196.827512,0.000097
1197.309715,0.000259
1197.791918,0.000378
1198.274121,0.000356
1198.756324,0.000316
1199.238527,0.000177
1199.720730,-0.000063
1200.202932,-0.000122
1200.685135,-0.000062
1201.167338,-0.000066
1201.649541,-0.000028
1202.131744,-0.000023
1202.613947,0.000001
1203.096150,0.000114
1203.578353,0.000098
1204.060555,0.000036
1204.542758,0.000047
1205.024961,0.000031
1205.507164,0.000018
1205.989367,0.000023
1206.471570,0.000039
1206.953773,0.000081
1207.435975,0.000166
1207.918178,0.000174
1208.400381,0.000002
1208.882584,-0.000032
1209.364787,0.000140
1209.846990,0.000188
1210.329193,0.000164
1210.811396,0.000194
1211.293598,0.000243
1211.775801,0.000296
1212.258004,0.000319
1212.740207,0.000325
1213.222410,0.000287
1213.704613,0.000279
1214.186816,0.000353
1214.669018,0.000373
1215.151221,0.000357
1215.633424,0.000403
1216.115627,0.000504
1216.597830,0.000612
1217.080033,0.000717
1217.562236,0.000820
1218.044439,0.000854
1218.526641,0.000811
1219.008844,0.000755
1219.491047,0.000764
1219.973250,0.000857
1220.455453,0.000938
1220.937656,0.000975
1221.419859,0.001060
1221.902061,0.001184
1222.384264,0.001328
1222.866467,0.001553
1223.348670,0.001627
1223.830873,0.001370
1224.313076,0.001195
1224.795279,0.001361
1225.277481,0.001587
1225.759684,0.001711
1226.241887,0.001843
1226.724090,0.002044
1227.206293,0.002310
1227.688496,0.002676
1228.170699,0.003038
1228.652902,0.003163
1229.135104,0.003106
1229.617307,0.003126
1230.099510,0.003253
1230.581713,0.003420
1231.063916,0.003614
1231.546119,0.003851
1232.028322,0.004206
1232.510524,0.004665
1232.992727,0.005124
1233.474930,0.005487
1233.957133,0.005589
1234.439336,0.005561
1234.921539,0.005733
1235.403742,0.006030
1235.885945,0.006332
1236.368147,0.006675
1236.850350,0.007038
1237.332553,0.007430
1237.814756,0.007910
1238.296959,0.008601
1238.779162,0.009306
1239.261365,0.009558
1239.743567,0.009542
1240.225770,0.009769
1240.707973,0.010226
1241.190176,0.010698
1241.672379,0.011162
1242.154582,0.011672
1242.636785,0.012255
1243.118988,0.012923
1243.601190,0.013725
1244.083393,0.014524
1244.565596,0.015007
1245.047799,0.015297
1245.530002,0.015834
1246.012205,0.016565
1246.494408,0.017197
1246.976610,0.017764
1247.458813,0.018288
1247.941016,0.018798
1248.423219,0.019462
1248.905422,0.020154
1249.387625,0.020791
1249.869828,0.021495
1250.352031,0.022054
1250.834233,0.022335
1251.316436,0.022651
1251.798639,0.022995
1252.280842,0.023155
1252.763045,0.023364
1253.245248,0.023476
1253.727451,0.023052
1254.209653,0.022317
1254.691856,0.021610
1255.174059,0.020995
1255.656262,0.020458
1256.138465,0.019835
1256.620668,0.019020
1257.102871,0.018247
1257.585073,0.017933
1258.067276,0.018123
1258.549479,0.018178
1259.031682,0.017834
1259.513885,0.017758
1259.996088,0.018121
1260.478291,0.018649
1260.960494,0.018853
1261.442696,0.018628
1261.924899,0.019296
1262.407102,0.021904
1262.889305,0.027877
1263.371508,0.035066
1263.853711,0.035699
1264.335914,0.029979
1264.818116,0.024855
1265.300319,0.021469
1265.782522,0.019081
1266.264725,0.018029
1266.746928,0.017808
1267.229131,0.018104
1267.711334,0.018631
1268.193537,0.019260
1268.675739,0.019970
1269.157942,0.020724
1269.640145,0.021665
1270.122348,0.022499
1270.604551,0.022921
1271.086754,0.023180
1271.568957,0.023401
1272.051159,0.023527
1272.533362,0.023574
1273.015565,0.023372
1273.497768,0.022909
1273.979971,0.022409
1274.462174,0.021907
1274.944377,0.021348
1275.426580,0.020756
1275.908782,0.020232
1276.390985,0.019759
1276.873188,0.019218
1277.355391,0.018526
1277.837594,0.017705
1278.319797,0.016953
1278.802000,0.016423
1279.284202,0.015975
1279.766405,0.015425
1280.248608,0.014963
1280.730811,0.014696
1281.213014,0.014436
1281.695217,0.014175
1282.177420,0.013721
1282.659622,0.012917
1283.141825,0.012176
1283.624028,0.011639
1284.106231,0.011035
1284.588434,0.010452
1285.070637,0.010012
1285.552840,0.009593
1286.035043,0.009171
1286.517245,0.008765
1286.999448,0.008423
1287.481651,0.008145
1287.963854,0.007634
1288.446057,0.006859
1288.928260,0.006284
1289.410463,0.005951
1289.892665,0.005585
1290.374868,0.005254
1290.857071,0.004980
1291.339274,0.004693
1291.821477,0.004455
1292.303680,0.004299
1292.785883,0.004173
1293.268086,0.003853
1293.750288,0.003352
1294.232491,0.002952
1294.714694,0.002615
1295.196897,0.002235
1295.679100,0.002005
1296.161303,0.002025
1296.643506,0.002031
1297.125708,0.001859
1297.607911,0.001691
1298.090114,0.001642
1298.572317,0.001589
1299.054520,0.001361
1299.536723,0.001052
1300.018926,0.000880
1300.501129,0.000827
1300.983331,0.000824
1301.465534,0.000829
1301.947737,0.000787
1302.429940,0.000759
1302.912143,0.000755
1303.394346,0.000715
1303.876549,0.000575
1304.358751,0.000322
1304.840954,0.000181
1305.323157,0.000181
1305.805360,0.000144
1306.287563,0.000160
1306.769766,0.000253
1307.251969,0.000310
1307.734172,0.000330
1308.216374,0.000306
1308.698577,0.000278
1309.180780,0.000293
1309.662983,0.000304
1310.145186,0.000274
1310.627389,0.000248
1311.109592,0.000197
1311.591794,0.000095
1312.073997,0.000104
1312.556200,0.000194
1313.038403,0.000175
1313.520606,0.000067
1314.002809,-0.000025
1314.485012,0.000012
1314.967214,0.000102
1315.449417,0.000022
1315.931620,-0.000108
1316.413823,-0.000069
1316.896026,0.000043
1317.378229,0.000102
1317.860432,-0.000004
1318.342635,-0.000233
1318.824837,-0.000300
1319.307040,-0.000257
1319.789243,-0.000269
1320.271446,-0.000228
1320.753649,-0.000134
1321.235852,-0.000114
1321.718055,-0.000218
1322.200257,-0.000344
1322.682460,-0.000348
1323.164663,-0.000229
1323.646866,-0.000132
1324.129069,-0.000172
1324.611272,-0.000184
1325.093475,-0.000137
1325.575678,-0.000183
1326.057880,-0.000162
1326.540083,-0.000046
1327.022286,0.000006
1327.504489,0.000011
1327.986692,-0.000069
1328.468895,-0.000145
1328.951098,-0.000057
1329.433300,0.000106
1329.915503,0.000157
1330.397706,0.000064
1330.879909,0.000105
1331.362112,0.000321
1331.844315,0.000390
1332.326518,0.000315
1332.808721,0.000264
1333.290923,0.000225
1333.773126,0.000213
1334.255329,0.000244
1334.737532,0.000266
1335.219735,0.000260
1335.701938,0.000219
1336.184141,0.000149
1336.666343,0.000195
1337.148546,0.000302
1337.630749,0.000194
1338.112952,0.000075
1338.595155,0.000209
1339.077358,0.000272
1339.559561,0.000178
1340.041764,0.000234
1340.523966,0.000340
1341.006169,0.000400
1341.488372,0.000456
1341.970575,0.000385
1342.452778,0.000346
1342.934981,0.000384
1343.417184,0.000275
1343.899386,0.000201
1344.381589,0.000246
1344.863792,0.000233
1345.345995,0.000237
1345.828198,0.000251
1346.310401,0.000204
1346.792604,0.000231
1347.274806,0.000277
1347.757009,0.000232
1348.239212,0.000214
1348.721415,0.000185
1349.203618,0.000110
1349.685821,0.000111
1350.168024,0.000111
1350.650227,0.000095
1351.132429,0.000046
1351.614632,-0.000105
1352.096835,-0.000114
1352.579038,0.000037
1353.061241,0.000050
1353.543444,-0.000004
1354.025647,0.000078
1354.507849,0.000170
1354.990052,0.000133
1355.472255,0.000073
1355.954458,0.000059
1356.436661,0.000089
1356.918864,0.000136
1357.401067,0.000123
1357.883270,0.000052
1358.365472,-0.000052
1358.847675,-0.000108
1359.329878,-0.000021
1359.812081,0.000048
1360.294284,-0.000028
1360.776487,-0.000024
1361.258690,0.000134
1361.740892,0.000190
1362.223095,0.000091
1362.705298,-0.000074
1363.187501,-0.000142
1363.669704,-0.000054
1364.151907,-0.000092
1364.634110,-0.000203
1365.116313,-0.000172
1365.598515,-0.000125
1366.080718,-0.000208
1366.562921,-0.000301
1367.045124,-0.000260
1367.527327,-0.000202
1368.009530,-0.000143
1368.491733,-0.000006
1368.973935,0.000072
1369.456138,0.000079
1369.938341,-0.000034
1370.420544,-0.000222
1370.902747,-0.000211
1371.384950,-0.000126
1371.867153,-0.000139
1372.349355,-0.000143
1372.831558,-0.000125
1373.313761,-0.000206
1373.795964,-0.000346
1374.278167,-0.000350
1374.760370,-0.000434
1375.242573,-0.000545
1375.724776,-0.000395
1376.206978,-0.000261
1376.689181,-0.000171
1377.171384,-0.000052
1377.653587,-0.000049
1378.135790,0.000008
1378.617993,0.000081
1379.100196,0.000057
1379.582398,0.000040
1380.064601,0.000003
1380.546804,0.000058
1381.029007,0.000178
1381.511210,0.000200
1381.993413,0.000242
1382.475616,0.000271
1382.957819,0.000240
1383.440021,0.000320
1383.922224,0.000404
1384.404427,0.000379
1384.886630,0.000406
1385.368833,0.000486
1385.851036,0.000542
1386.333239,0.000643
1386.815441,0.000696
1387.297644,0.000615
1387.779847,0.000620
1388.262050,0.000735
1388.744253,0.000811
1389.226456,0.000887
1389.708659,0.000936
1390.190862,0.000950
1390.673064,0.000990
1391.155267,0.001050
1391.637470,0.001086
1392.119673,0.001063
1392.601876,0.001065
1393.084079,0.001125
1393.566282,0.001077
1394.048484,0.000864
1394.530687,0.000766
1395.012890,0.000961
1395.495093,0.001129
1395.977296,0.001184
1396.459499,0.001256
1396.941702,0.001267
1397.423905,0.001101
1397.906107,0.000964
1398.388310,0.000982
1398.870513,0.000875
1399.352716,0.000735
1399.834919,0.000841
1400.317122,0.000939
1400.799325,0.000949
1401.281527,0.000975
1401.763730,0.001016
1402.245933,0.001104
1402.728136,0.001136
1403.210339,0.001010
1403.692542,0.000982
1404.174745,0.001086
1404.656947,0.001021
1405.139150,0.000930
1405.621353,0.000952
1406.103556,0.000857
1406.585759,0.000752
1407.067962,0.000805
1407.550165,0.000891
1408.032368,0.000901
1408.514570,0.000849
1408.996773,0.000866
1409.478976,0.000958
1409.961179,0.000923
1410.443382,0.000819
1410.925585,0.000811
1411.407788,0.000794
1411.889990,0.000746
1412.372193,0.000779
1412.854396,0.000790
1413.336599,0.000763
1413.818802,0.000773
1414.301005,0.000704
1414.783208,0.000616
1415.265411,0.000594
1415.747613,0.000545
1416.229816,0.000601
1416.712019,0.000679
1417.194222,0.000633
1417.676425,0.000704
1418.158628,0.000739
1418.640831,0.000455
1419.123033,0.000157
1419.605236,0.000312
1420.087439,0.000613
1420.569642,0.000651
1421.051845,0.000610
1421.534048,0.000605
1422.016251,0.000639
1422.498454,0.000718
1422.980656,0.000672
1423.462859,0.000480
1423.945062,0.000415
1424.427265,0.000593
1424.909468,0.000697
1425.391671,0.000575
1425.873874,0.000585
1426.356076,0.000753
1426.838279,0.000729
1427.320482,0.000645
1427.802685,0.000681
1428.284888,0.000683
1428.767091,0.000653
1429.249294,0.000614
1429.731497,0.000542
1430.213699,0.000581
1430.695902,0.000715
1431.178105,0.000796
1431.660308,0.000772
1432.142511,0.000691
1432.624714,0.000684
1433.106917,0.000689
1433.589119,0.000621
1434.071322,0.000644
1434.553525,0.000756
1435.035728,0.000714
1435.517931,0.000552
1436.000134,0.000366
1436.482337,0.000069
1436.964539,0.000102
1437.446742,0.000572
1437.928945,0.000741
1438.411148,0.000663
1438.893351,0.000681
1439.375554,0.000762
1439.857757,0.000712
1440.339960,0.000556
1440.822162,0.000488
1441.304365,0.000581
1441.786568,0.000676
1442.268771,0.000704
1442.750974,0.000704
1443.233177,0.000627
1443.715380,0.000499
1444.197582,0.000447
1444.679785,0.000461
1445.161988,0.000489
1445.644191,0.000580
1446.126394,0.000639
1446.608597,0.000610
1447.090800,0.000591
1447.573003,0.000528
1448.055205,0.000580
1448.537408,0.000756
1449.019611,0.000772
1449.501814,0.000741
1449.984017,0.000693
1450.466220,0.000642
1450.948423,0.000658
1451.430625,0.000616
1451.912828,0.000584
1452.395031,0.000598
1452.877234,0.000641
1453.359437,0.000744
1453.841640,0.000688
1454.323843,0.000520
1454.806046,0.000501
1455.288248,0.000558
1455.770451,0.000655
1456.252654,0.000527
1456.734857,-0.000023
1457.217060,0.000145
1457.699263,0.000574
1458.181466,0.000429
1458.663668,0.000298
1459.145871,0.000438
1459.628074,0.000632
1460.110277,0.000785
1460.592480,0.000803
1461.074683,0.000858
1461.556886,0.000957
1462.039089,0.000938
1462.521291,0.000865
1463.003494,0.000833
1463.485697,0.000870
1463.967900,0.000841
1464.450103,0.000571
1464.932306,0.000436
1465.414509,0.000763
1465.896711,0.000964
1466.378914,0.000937
1466.861117,0.000852
1467.343320,0.000792
1467.825523,0.000764
1468.307726,0.000665
1468.789929,0.000604
1469.272131,0.000649
1469.754334,0.000616
1470.236537,0.000589
1470.718740,0.000607
1471.200943,0.000457
1471.683146,0.000077
1472.165349,-0.000120
1472.647552,0.000046
1473.129754,0.000049
1473.611957,0.000143
1474.094160,0.000429
1474.576363,0.000410
1475.058566,0.000308
1475.540769,0.000165
1476.022972,-0.000096
1476.505174,-0.000054
1476.987377,0.000177
1477.469580,0.000247
1477.951783,0.000245
1478.433986,0.000203
1478.916189,0.000148
1479.398392,0.000119
1479.880595,0.000114
1480.362797,0.000135
1480.845000,0.000088
1481.327203,-0.000016
1481.809406,-0.000031
1482.291609,0.000079
1482.773812,0.000172
1483.256015,0.000101
1483.738217,0.000021
1484.220420,0.000039
1484.702623,-0.000004
1485.184826,-0.000071
1485.667029,-0.000071
1486.149232,-0.000066
1486.631435,-0.000175
1487.113638,-0.000381
1487.595840,-0.000289
1488.078043,-0.000066
1488.560246,-0.000143
1489.042449,-0.000255
1489.524652,-0.000287
1490.006855,-0.000316
1490.489058,-0.000332
1490.971260,-0.000383
1491.453463,-0.000231
1491.935666,-0.000021
1492.417869,-0.000064
1492.900072,-0.000134
1493.382275,-0.000041
1493.864478,0.000019
1494.346680,-0.000061
1494.828883,-0.000092
1495.311086,-0.000090
1495.793289,-0.000299
1496.275492,-0.000384
1496.757695,-0.000056
1497.239898,0.000060
1497.722101,-0.000015
1498.204303,-0.000108
1498.686506,-0.000263
1499.168709,-0.000157
1499.650912,0.000102
1500.133115,0.000118
1500.615318,0.000101
1501.097521,0.000129
1501.579723,0.000075
1502.061926,0.000067
1502.544129,0.000143
1503.026332,0.000223
1503.508535,0.000220
1503.990738,0.000130
1504.472941,0.000089
1504.955144,-0.000110
1505.437346,-0.000544
1505.919549,-0.000580
1506.401752,-0.000471
1506.883955,-0.000586
1507.366158,-0.000289
1507.848361,-0.000015
1508.330564,-0.000028
1508.812766,0.000033
1509.294969,0.000077
1509.777172,0.000071
1510.259375,0.000137
1510.741578,0.000173
1511.223781,0.000187
1511.705984,0.000164
1512.188187,0.000044
1512.670389,0.000055
1513.152592,0.000214
1513.634795,0.000260
1514.116998,0.000180
1514.599201,0.000081
1515.081404,0.000041
1515.563607,0.000042
1516.045809,-0.000081
1516.528012,-0.000328
1517.010215,-0.000472
1517.492418,-0.000391
1517.974621,-0.000161
1518.456824,-0.000019
1518.939027,-0.000010
1519.421230,-0.000086
1519.903432,-0.000238
1520.385635,-0.000355
1520.867838,-0.000510
1521.350041,-0.000510
1521.832244,-0.000232
1522.314447,-0.000384
1522.796650,-0.000562
1523.278852,-0.000253
1523.761055,-0.000062
1524.243258,-0.000064
1524.725461,-0.000105
1525.207664,-0.000243
1525.689867,-0.000258
1526.172070,-0.000021
1526.654272,0.000079
1527.136475,-0.000050
1527.618678,-0.000110
1528.100881,-0.000098
1528.583084,-0.000113
1529.065287,0.000019
1529.547490,0.000121
1530.029693,0.000056
1530.511895,0.000100
1530.994098,0.000212
1531.476301,0.000141
1531.958504,0.000058
1532.440707,0.000028
1532.922910,-0.000187
1533.405113,-0.000446
1533.887315,-0.000383
1534.369518,-0.000103
1534.851721,0.000096
1535.333924,0.000212
1535.816127,0.000312
1536.298330,0.000392
1536.780533,0.000423
1537.262736,0.000361
1537.744938,0.000255
1538.227141,0.000101
1538.709344,-0.000161
1539.191547,-0.000235
1539.673750,-0.000125
1540.155953,-0.000169
1540.638156,0.000102
1541.120358,0.000424
1541.602561,0.000186
1542.084764,-0.000079
1542.566967,0.000441
1543.049170,0.000806
1543.531373,0.000740
1544.013576,0.000754
1544.495779,0.000844
1544.977981,0.000878
1545.460184,0.000997
1545.942387,0.001164
1546.424590,0.001306
1546.906793,0.001439
1547.388996,0.001570
1547.871199,0.001660
1548.353401,0.001732
1548.835604,0.001784
1549.317807,0.001805
1549.800010,0.001909
1550.282213,0.002116
1550.764416,0.002357
1551.246619,0.002536
1551.728822,0.002677
1552.211024,0.002892
1552.693227,0.003140
1553.175430,0.003312
1553.657633,0.003363
1554.139836,0.003399
1554.622039,0.003690
1555.104242,0.004211
1555.586444,0.004594
1556.068647,0.004808
1556.550850,0.005001
1557.033053,0.005116
1557.515256,0.005183
1557.997459,0.005440
1558.479662,0.005966
1558.961864,0.006698
1559.444067,0.007104
1559.926270,0.007337
1560.408473,0.008243
1560.890676,0.009300
1561.372879,0.009980
1561.855082,0.010699
1562.337285,0.011440
1562.819487,0.012049
1563.301690,0.012750
1563.783893,0.013599
1564.266096,0.014484
1564.748299,0.015442
1565.230502,0.016530
1565.712705,0.017627
1566.194907,0.018743
1566.677110,0.020036
1567.159313,0.021355
1567.641516,0.022464
1568.123719,0.023614
1568.605922,0.025184
1569.088125,0.026885
1569.570328,0.028505
1570.052530,0.030345
1570.534733,0.032418
1571.016936,0.034861
1571.499139,0.037379
1571.981342,0.039167
1572.463545,0.040760
1572.945748,0.043305
1573.427950,0.046385
1573.910153,0.048945
1574.392356,0.051069
1574.874559,0.053649
1575.356762,0.057190
1575.838965,0.060818
1576.321168,0.064149
1576.803371,0.068178
1577.285573,0.072444
1577.767776,0.076708
1578.249979,0.080564
1578.732182,0.083749
1579.214385,0.087610
1579.696588,0.093106
1580.178791,0.098720
1580.660993,0.102864
1581.143196,0.107095
1581.625399,0.113366
1582.107602,0.119925
1582.589805,0.124154
1583.072008,0.127211
1583.554211,0.132420
1584.036413,0.140333
1584.518616,0.147630
1585.000819,0.151942
1585.483022,0.156247
1585.965225,0.164868
1586.447428,0.175355
1586.929631,0.180444
1587.411834,0.181249
1587.894036,0.186480
1588.376239,0.197458
1588.858442,0.206570
1589.340645,0.209902
1589.822848,0.214559
1590.305051,0.227762
1590.787254,0.241700
1591.269456,0.242907
1591.751659,0.239739
1592.233862,0.250187
1592.716065,0.265036
1593.198268,0.265179
1593.680471,0.262386
1594.162674,0.275717
1594.644877,0.294532
1595.127079,0.294683
1595.609282,0.283468
1596.091485,0.287486
1596.573688,0.301850
1597.055891,0.298241
1597.538094,0.287095
1598.020297,0.298382
1598.502499,0.321359
1598.984702,0.321387
1599.466905,0.302743
1599.949108,0.299368
1600.431311,0.309742
1600.913514,0.303241
1601.395717,0.291272
1601.877920,0.306147
1602.360122,0.327794
1602.842325,0.312829
1603.324528,0.282644
1603.806731,0.281881
1604.288934,0.294836
1604.771137,0.288031
1605.253340,0.287437
1605.735542,0.312555
1606.217745,0.307187
1606.699948,0.261043
1607.182151,0.243466
1607.664354,0.262319
1608.146557,0.286537
1608.628760,0.291739
1609.110963,0.261477
1609.593165,0.233478
1610.075368,0.228450
1610.557571,0.238645
1611.039774,0.259783
1611.521977,0.244818
1612.004180,0.198936
1612.486383,0.192135
1612.968585,0.222966
1613.450788,0.215785
1613.932991,0.177009
1614.415194,0.181503
1614.897397,0.196806
1615.379600,0.176283
1615.861803,0.161183
1616.344005,0.148953
1616.826208,0.125046
1617.308411,0.123494
1617.790614,0.137171
1618.272817,0.156976
1618.755020,0.183211
1619.237223,0.213903
1619.719426,0.238021
1620.201628,0.251924
1620.683831,0.277287
1621.166034,0.304959
1621.648237,0.312111
1622.130440,0.321399
1622.612643,0.350468
1623.094846,0.370079
1623.577048,0.374605
1624.059251,0.395169
1624.541454,0.403536
1625.023657,0.386594
1625.505860,0.396866
1625.988063,0.425561
1626.470266,0.410293
1626.952469,0.404996
1627.434671,0.438403
1627.916874,0.425949
1628.399077,0.407835
1628.881280,0.437429
1629.363483,0.428700
1629.845686,0.400431
1630.327889,0.421358
1630.810091,0.417204
1631.292294,0.383761
1631.774497,0.396186
1632.256700,0.390009
1632.738903,0.355538
1633.221106,0.364689
1633.703309,0.356785
1634.185512,0.321393
1634.667714,0.325887
1635.149917,0.316526
1635.632120,0.289022
1636.114323,0.297991
1636.596526,0.270889
1637.078729,0.244147
1637.560932,0.246073
1638.043134,0.226294
1638.525337,0.218187
1639.007540,0.223578
1639.489743,0.203140
1639.971946,0.198425
1640.454149,0.190953
1640.936352,0.163574
1641.418555,0.157595
1641.900757,0.144442
1642.382960,0.128552
1642.865163,0.126521
1643.347366,0.111638
1643.829569,0.104066
1644.311772,0.099904
1644.793975,0.087355
1645.276177,0.085891
1645.758380,0.080773
1646.240583,0.070037
1646.722786,0.062513
1647.204989,0.052891
1647.687192,0.049360
1648.169395,0.045992
1648.651597,0.041687
1649.133800,0.038615
1649.616003,0.034032
1650.098206,0.031686
1650.580409,0.028956
1651.062612,0.026184
1651.544815,0.024429
1652.027018,0.021145
1652.509220,0.018514
1652.991423,0.015808
1653.473626,0.013818
1653.955829,0.013923
1654.438032,0.013652
1654.920235,0.013220
1655.402438,0.012931
1655.884640,0.012612
1656.366843,0.012026
1656.849046,0.011505
1657.331249,0.011098
1657.813452,0.010699
1658.295655,0.010389
1658.777858,0.010045
1659.260061,0.009811
1659.742263,0.009600
1660.224466,0.009361
1660.706669,0.009092
1661.188872,0.008844
1661.671075,0.008645
1662.153278,0.008322
1662.635481,0.007886
1663.117683,0.007655
1663.599886,0.007822
1664.082089,0.007890
1664.564292,0.007807
1665.046495,0.007793
1665.528698,0.007722
1666.010901,0.007611
1666.493104,0.007558
1666.975306,0.007621
1667.457509,0.007685
1667.939712,0.007642
1668.421915,0.007561
1668.904118,0.007352
1669.386321,0.007205
1669.868524,0.007499
1670.350726,0.007865
1670.832929,0.007995
1671.315132,0.007920
1671.797335,0.008063
1672.279538,0.008495
1672.761741,0.008799
1673.243944,0.009033
1673.726146,0.009226
1674.208349,0.009308
1674.690552,0.009204
1675.172755,0.008985
1675.654958,0.009432
1676.137161,0.010216
1676.619364,0.010610
1677.101567,0.010846
1677.583769,0.011159
1678.065972,0.011501
1678.548175,0.011805
1679.030378,0.012106
1679.512581,0.012352
1679.994784,0.012571
1680.476987,0.012807
1680.959189,0.013035
1681.441392,0.013222
1681.923595,0.013354
1682.405798,0.013501
1682.888001,0.013557
1683.370204,0.013518
1683.852407,0.013486
1684.334610,0.013448
1684.816812,0.013463
1685.299015,0.013433
1685.781218,0.013445
1686.263421,0.013463
1686.745624,0.013334
1687.227827,0.013149
1687.710030,0.012898
1688.192232,0.012526
1688.674435,0.012209
1689.156638,0.011993
1689.638841,0.011659
1690.121044,0.011257
1690.603247,0.011030
1691.085450,0.010850
1691.567653,0.010487
1692.049855,0.009946
1692.532058,0.009292
1693.014261,0.008597
1693.496464,0.007941
1693.978667,0.007361
1694.460870,0.006864
1694.943073,0.006346
1695.425275,0.005869
1695.907478,0.006185
1696.389681,0.007727
1696.871884,0.009392
1697.354087,0.011857
1697.836290,0.015857
1698.318493,0.020462
1698.800696,0.024753
1699.282898,0.026230
1699.765101,0.020580
1700.247304,0.009531
1700.729507,0.004555
1701.211710,0.004830
1701.693913,0.005410
1702.176116,0.005455
1702.658318,0.005012
1703.140521,0.004965
1703.622724,0.005314
1704.104927,0.005674
1704.587130,0.006285
1705.069333,0.007308
1705.551536,0.008258
1706.033738,0.008905
1706.515941,0.009680
1706.998144,0.010613
1707.480347,0.011400
1707.962550,0.012146
1708.444753,0.012870
1708.926956,0.013495
1709.409159,0.014046
1709.891361,0.014483
1710.373564,0.014851
1710.855767,0.015280
1711.337970,0.015635
1711.820173,0.015866
1712.302376,0.016092
1712.784579,0.016261
1713.266781,0.016291
1713.748984,0.016223
1714.231187,0.016139
1714.713390,0.015967
1715.195593,0.015729
1715.677796,0.015706
1716.159999,0.015754
1716.642202,0.015523
1717.124404,0.014995
1717.606607,0.014653
1718.088810,0.014510
1718.571013,0.013975
1719.053216,0.013669
1719.535419,0.013850
1720.017622,0.013745
1720.499824,0.013393
1720.982027,0.013110
1721.464230,0.012806
1721.946433,0.012410
1722.428636,0.012107
1722.910839,0.011932
1723.393042,0.011685
1723.875245,0.011427
1724.357447,0.011175
1724.839650,0.010885
1725.321853,0.010678
1725.804056,0.010494
1726.286259,0.010308
1726.768462,0.010177
1727.250665,0.010063
1727.732867,0.009974
1728.215070,0.009914
1728.697273,0.009913
1729.179476,0.009900
1729.661679,0.009738
1730.143882,0.009674
1730.626085,0.009856
1731.108288,0.009946
1731.590490,0.009919
1732.072693,0.010014
1732.554896,0.010162
1733.037099,0.010246
1733.519302,0.010507
1734.001505,0.010694
1734.483708,0.010568
1734.965910,0.010885
1735.448113,0.011500
1735.930316,0.011838
1736.412519,0.012099
1736.894722,0.012368
1737.376925,0.012641
1737.859128,0.012997
1738.341330,0.013287
1738.823533,0.013433
1739.305736,0.013473
1739.787939,0.013442
1740.270142,0.013769
1740.752345,0.014276
1741.234548,0.014442
1741.716751,0.014478
1742.198953,0.014585
1742.681156,0.014621
1743.163359,0.014641
1743.645562,0.014727
1744.127765,0.014779
1744.609968,0.014744
1745.092171,0.014600
1745.574373,0.014448
1746.056576,0.014412
1746.538779,0.014310
1747.020982,0.014118
1747.503185,0.014000
1747.985388,0.013850
1748.467591,0.013665
1748.949794,0.013586
1749.431996,0.013568
1749.914199,0.013612
1750.396402,0.013647
1750.878605,0.013497
1751.360808,0.013437
1751.843011,0.013653
1752.325214,0.013699
1752.807416,0.013659
1753.289619,0.013747
1753.771822,0.013799
1754.254025,0.013798
1754.736228,0.013876
1755.218431,0.013967
1755.700634,0.013934
1756.182837,0.013724
1756.665039,0.013464
1757.147242,0.013401
1757.629445,0.013490
1758.111648,0.013406
1758.593851,0.013172
1759.076054,0.013014
1759.558257,0.012782
1760.040459,0.012307
1760.522662,0.011729
1761.004865,0.011050
1761.487068,0.010235
1761.969271,0.009532
1762.451474,0.009168
1762.933677,0.008861
1763.415880,0.008365
1763.898082,0.007761
1764.380285,0.007239
1764.862488,0.006714
1765.344691,0.006140
1765.826894,0.005690
1766.309097,0.005284
1766.791300,0.004837
1767.273502,0.004425
1767.755705,0.003944
1768.237908,0.003434
1768.720111,0.003081
1769.202314,0.002771
1769.684517,0.002423
1770.166720,0.002093
1770.648922,0.001734
1771.131125,0.001318
1771.613328,0.001102
1772.095531,0.000995
1772.577734,0.000683
1773.059937,0.000565
1773.542140,0.000634
1774.024343,0.000481
1774.506545,0.000317
1774.988748,0.000223
1775.470951,0.000206
1775.953154,0.000333
1776.435357,0.000328
1776.917560,0.000182
1777.399763,0.000129
1777.881965,0.000115
1778.364168,0.000044
1778.846371,-0.000075
1779.328574,-0.000184
1779.810777,-0.000111
1780.292980,-0.000046
1780.775183,-0.000247
1781.257386,-0.000261
1781.739588,-0.000032
1782.221791,-0.000067
1782.703994,-0.000200
1783.186197,-0.000156
1783.668400,-0.000022
1784.150603,0.000227
1784.632806,0.000349
1785.115008,0.000168
1785.597211,0.000119
1786.079414,0.000223
1786.561617,0.000161
1787.043820,0.000074
1787.526023,0.000108
1788.008226,0.000366
1788.490429,0.000758
1788.972631,0.000699
1789.454834,0.000347
1789.937037,0.000372
1790.419240,0.000419
1790.901443,0.000097
1791.383646,-0.000111
1791.865849,-0.000063
1792.348051,-0.000059
1792.830254,-0.000056
1793.312457,-0.000078
1793.794660,0.000026
1794.276863,0.000346
1794.759066,0.000361
1795.241269,0.000095
1795.723471,0.000102
1796.205674,0.000569
1796.687877,0.001171
1797.170080,0.000956
1797.652283,0.000266
1798.134486,0.000435
1798.616689,0.000871
1799.098892,0.000537
1799.581094,0.000010
1800.063297,0.000349
1800.545500,0.001453
1801.027703,0.001705
1801.509906,0.000600
1801.992109,0.000151
1802.474312,0.000790
1802.956514,0.000929
1803.438717,0.000514
1803.920920,0.000605
1804.403123,0.001720
1804.885326,0.002586
1805.367529,0.001658
1805.849732,0.000675
1806.331935,0.001280
1806.814137,0.001849
1807.296340,0.001319
1807.778543,0.000870
1808.260746,0.001945
1808.742949,0.003406
1809.225152,0.002679
1809.707355,0.001019
1810.189557,0.001071
1810.671760,0.001998
1811.153963,0.002047
1811.636166,0.001449
1812.118369,0.002279
1812.600572,0.004360
1813.082775,0.003948
1813.564978,0.001638
1814.047180,0.001342
1814.529383,0.002796
1815.011586,0.003301
1815.493789,0.002306
1815.975992,0.002799
1816.458195,0.005410
1816.940398,0.005336
1817.422600,0.002517
1817.904803,0.001746
1818.387006,0.003374
1818.869209,0.004578
1819.351412,0.003672
1819.833615,0.003775
1820.315818,0.006767
1820.798021,0.006758
1821.280223,0.003200
1821.762426,0.001960
1822.244629,0.003730
1822.726832,0.005663
1823.209035,0.004916
1823.691238,0.004816
1824.173441,0.008380
1824.655643,0.008273
1825.137846,0.003736
1825.620049,0.002250
1826.102252,0.004303
1826.584455,0.006743
1827.066658,0.006312
1827.548861,0.006374
1828.031063,0.010147
1828.513266,0.009064
1828.995469,0.003772
1829.477672,0.002439
1829.959875,0.004669
1830.442078,0.007706
1830.924281,0.007399
1831.406484,0.008123
1831.888686,0.011833
1832.370889,0.009010
1832.853092,0.003464
1833.335295,0.002969
1833.817498,0.005973
1834.299701,0.009498
1834.781904,0.009335
1835.264106,0.010809
1835.746309,0.013541
1836.228512,0.008390
1836.710715,0.003197
1837.192918,0.003745
1837.675121,0.007561
1838.157324,0.011283
1838.639527,0.011282
1839.121729,0.013634
1839.603932,0.013872
1840.086135,0.006689
1840.568338,0.003103
1841.050541,0.004791
1841.532744,0.009255
1842.014947,0.012843
1842.497149,0.013756
1842.979352,0.016461
1843.461555,0.013050
1843.943758,0.005176
1844.425961,0.003680
1844.908164,0.006534
1845.390367,0.011224
1845.872570,0.014224
1846.354772,0.016151
1846.836975,0.016127
1847.319178,0.008595
1847.801381,0.003121
1848.283584,0.004086
1848.765787,0.007927
1849.247990,0.013134
1849.730192,0.016213
1850.212395,0.017522
1850.694598,0.012642
1851.176801,0.004633
1851.659004,0.002961
1852.141207,0.005303
1852.623410,0.009951
1853.105613,0.015169
1853.587815,0.018185
1854.070018,0.015636
1854.552221,0.007119
1855.034424,0.002541
1855.516627,0.003751
1855.998830,0.007042
1856.481033,0.012387
1856.963235,0.017214
1857.445438,0.016794
1857.927641,0.009289
1858.409844,0.002930
1858.892047,0.002755
1859.374250,0.004879
1859.856453,0.008931
1860.338655,0.014670
1860.820858,0.016415
1861.303061,0.010334
1861.785264,0.003237
1862.267467,0.001761
1862.749670,0.003092
1863.231873,0.005640
1863.714076,0.010764
1864.196278,0.014168
1864.678481,0.009999
1865.160684,0.003089
1865.642887,0.000927
1866.125090,0.001753
1866.607293,0.003025
1867.089496,0.006253
1867.571698,0.009606
1868.053901,0.007664
1868.536104,0.002295
1869.018307,0.000015
1869.500510,0.000290
1869.982713,0.000740
1870.464916,0.001846
1870.947119,0.003899
1871.429321,0.004022
1871.911524,0.001600
1872.393727,0.000385
1872.875930,0.000764
1873.358133,0.001362
1873.840336,0.002515
1874.322539,0.004592
1874.804741,0.007520
1875.286944,0.012148
1875.769147,0.016404
1876.251350,0.012785
1876.733553,0.004232
1877.215756,0.000452
1877.697959,0.000066
1878.180162,-0.000258
1878.662364,-0.000322
1879.144567,-0.000256
1879.626770,0.000217
1880.108973,0.000802
1880.591176,0.002370
1881.073379,0.004283
1881.555582,0.003436
1882.037784,0.000981
1882.519987,0.000624
1883.002190,0.001829
1883.484393,0.003426
1883.966596,0.007773
1884.448799,0.011276
1884.931002,0.007454
1885.413204,0.002131
1885.895407,0.002112
1886.377610,0.003809
1886.859813,0.006734
1887.342016,0.013895
1887.824219,0.016655
1888.306422,0.008961
1888.788625,0.002663
1889.270827,0.003732
1889.753030,0.006010
1890.235233,0.011430
1890.717436,0.020090
1891.199639,0.018873
1891.681842,0.008048
1892.164045,0.003531
1892.646247,0.005622
1893.128450,0.008669
1893.610653,0.017321
1894.092856,0.024656
1894.575059,0.017249
1895.057262,0.006130
1895.539465,0.004796
1896.021668,0.007425
1896.503870,0.013189
1896.986073,0.023946
1897.468276,0.024584
1897.950479,0.012256
1898.432682,0.005190
1898.914885,0.006631
1899.397088,0.010539
1899.879290,0.019979
1900.361493,0.027056
1900.843696,0.019080
1901.325899,0.007927
1901.808102,0.006015
1902.290305,0.008892
1902.772508,0.016161
1903.254711,0.025611
1903.736913,0.023376
1904.219116,0.011851
1904.701319,0.006363
1905.183522,0.007745
1905.665725,0.013441
1906.147928,0.022926
1906.630131,0.024730
1907.112333,0.015186
1907.594536,0.007491
1908.076739,0.006856
1908.558942,0.011336
1909.041145,0.020018
1909.523348,0.023726
1910.005551,0.016729
1910.487754,0.008817
1910.969956,0.006539
1911.452159,0.009699
1911.934362,0.017565
1912.416565,0.021694
1912.898768,0.016450
1913.380971,0.009476
1913.863174,0.006429
1914.345376,0.008477
1914.827579,0.015432
1915.309782,0.019192
1915.791985,0.015082
1916.274188,0.009312
1916.756391,0.005951
1917.238594,0.007046
1917.720796,0.012771
1918.202999,0.015725
1918.685202,0.012546
1919.167405,0.008623
1919.649608,0.005874
1920.131811,0.007109
1920.614014,0.012474
1921.096217,0.014066
1921.578419,0.010770
1922.060622,0.007693
1922.542825,0.005396
1923.025028,0.006751
1923.507231,0.011298
1923.989434,0.011457
1924.471637,0.008559
1924.953839,0.006423
1925.436042,0.004673
1925.918245,0.006591
1926.400448,0.009926
1926.882651,0.008772
1927.364854,0.006542
1927.847057,0.005133
1928.329260,0.004112
1928.811462,0.006453
1929.293665,0.008208
1929.775868,0.006333
1930.258071,0.004981
1930.740274,0.003900
1931.222477,0.003773
1931.704680,0.005996
1932.186882,0.006012
1932.669085,0.004371
1933.151288,0.003775
1933.633491,0.002939
1934.115694,0.003683
1934.597897,0.004912
1935.080100,0.003813
1935.562303,0.003093
1936.044505,0.002758
1936.526708,0.002459
1937.008911,0.003534
1937.491114,0.003393
1937.973317,0.002420
1938.455520,0.002296
1938.937723,0.001885
1939.419925,0.002277
1939.902128,0.002717
1940.384331,0.001935
1940.866534,0.001642
1941.348737,0.001485
1941.830940,0.001503
1942.313143,0.002015
1942.795346,0.001598
1943.277548,0.001169
1943.759751,0.001149
1944.241954,0.001066
1944.724157,0.001372
1945.206360,0.001177
1945.688563,0.000752
1946.170766,0.000805
1946.652968,0.000795
1947.135171,0.000969
1947.617374,0.000949
1948.099577,0.000669
1948.581780,0.000673
1949.063983,0.000600
1949.546186,0.000655
1950.028388,0.000691
1950.510591,0.000455
1950.992794,0.000426
1951.474997,0.000459
1951.957200,0.000471
1952.439403,0.000412
1952.921606,0.000272
1953.403809,0.000340
1953.886011,0.000417
1954.368214,0.000391
1954.850417,0.000298
1955.332620,0.000194
1955.814823,0.000207
1956.297026,0.000231
1956.779229,0.000235
1957.261431,0.000194
1957.743634,0.000156
1958.225837,0.000170
1958.708040,0.000175
1959.190243,0.000232
1959.672446,0.000221
1960.154649,0.000126
1960.636852,0.000088
1961.119054,0.000062
1961.601257,0.000003
1962.083460,-0.000053
1962.565663,-0.000060
1963.047866,-0.000049
1963.530069,-0.000087
1964.012272,-0.000110
1964.494474,-0.000083
1964.976677,-0.000059
1965.458880,-0.000011
1965.941083,0.000002
1966.423286,-0.000111
1966.905489,-0.000170
1967.387692,-0.000124
1967.869895,-0.000096
1968.352097,-0.000096
1968.834300,-0.000101
1969.316503,-0.000068
1969.798706,-0.000041
1970.280909,-0.000066
1970.763112,-0.000103
1971.245315,-0.000112
1971.727517,-0.000075
1972.209720,-0.000087
1972.691923,-0.000129
1973.174126,-0.000110
1973.656329,-0.000106
1974.138532,-0.000119
1974.620735,-0.000116
1975.102938,-0.000106
1975.585140,-0.000089
1976.067343,-0.000116
1976.549546,-0.000136
1977.031749,-0.000128
1977.513952,-0.000135
1977.996155,-0.000124
1978.478358,-0.000123
1978.960560,-0.000106
1979.442763,-0.000050
1979.924966,-0.000076
1980.407169,-0.000142
1980.889372,-0.000106
1981.371575,-0.000063
1981.853778,-0.000137
1982.335980,-0.000188
1982.818183,-0.000139
1983.300386,-0.000132
1983.782589,-0.000184
1984.264792,-0.000192
1984.746995,-0.000142
1985.229198,-0.000093
1985.711401,-0.000050
1986.193603,-0.000027
1986.675806,-0.000079
1987.158009,-0.000135
1987.640212,-0.000138
1988.122415,-0.000160
1988.604618,-0.000188
1989.086821,-0.000173
1989.569023,-0.000205
1990.051226,-0.000253
1990.533429,-0.000152
1991.015632,-0.000103
1991.497835,-0.000286
1991.980038,-0.000409
1992.462241,-0.000337
1992.944444,-0.000189
1993.426646,-0.000103
1993.908849,-0.000164
1994.391052,-0.000195
1994.873255,-0.000182
1995.355458,-0.000229
1995.837661,-0.000245
1996.319864,-0.000198
1996.802066,-0.000132
1997.284269,-0.000159
1997.766472,-0.000220
1998.248675,-0.000123
1998.730878,-0.000057
1999.213081,-0.000152
1999.695284,-0.000219
2000.177487,-0.000199
2000.659689,-0.000165
2001.141892,-0.000170
2001.624095,-0.000181
2002.106298,-0.000169
2002.588501,-0.000191
2003.070704,-0.000202
2003.552907,-0.000153
2004.035109,-0.000190
2004.517312,-0.000252
2004.999515,-0.000180
2005.481718,-0.000136
2005.963921,-0.000187
2006.446124,-0.000209
2006.928327,-0.000213
2007.410529,-0.000208
2007.892732,-0.000182
2008.374935,-0.000218
2008.857138,-0.000303
2009.339341,-0.000322
2009.821544,-0.000318
2010.303747,-0.000319
2010.785950,-0.000273
2011.268152,-0.000212
2011.750355,-0.000178
2012.232558,-0.000190
2012.714761,-0.000187
2013.196964,-0.000187
2013.679167,-0.000235
2014.161370,-0.000231
2014.643572,-0.000221
2015.125775,-0.000238
2015.607978,-0.000204
2016.090181,-0.000193
2016.572384,-0.000267
2017.054587,-0.000323
2017.536790,-0.000260
2018.018993,-0.000191
2018.501195,-0.000207
2018.983398,-0.000190
2019.465601,-0.000183
2019.947804,-0.000298
2020.430007,-0.000359
2020.912210,-0.000287
2021.394413,-0.000264
2021.876615,-0.000269
2022.358818,-0.000209
2022.841021,-0.000214
2023.323224,-0.000245
2023.805427,-0.000186
2024.287630,-0.000160
2024.769833,-0.000224
2025.252036,-0.000231
2025.734238,-0.000163
2026.216441,-0.000190
2026.698644,-0.000280
2027.180847,-0.000265
2027.663050,-0.000225
2028.145253,-0.000240
2028.627456,-0.000278
2029.109658,-0.000338
2029.591861,-0.000334
2030.074064,-0.000280
2030.556267,-0.000241
2031.038470,-0.000228
2031.520673,-0.000308
2032.002876,-0.000340
2032.485079,-0.000284
2032.967281,-0.000274
2033.449484,-0.000266
2033.931687,-0.000297
2034.413890,-0.000342
2034.896093,-0.000328
2035.378296,-0.000335
2035.860499,-0.000367
2036.342701,-0.000344
2036.824904,-0.000258
2037.307107,-0.000255
2037.789310,-0.000297
2038.271513,-0.000259
2038.753716,-0.000282
2039.235919,-0.000338
2039.718121,-0.000319
2040.200324,-0.000332
2040.682527,-0.000380
2041.164730,-0.000383
2041.646933,-0.000348
2042.129136,-0.000308
2042.611339,-0.000290
2043.093542,-0.000298
2043.575744,-0.000303
2044.057947,-0.000275
2044.540150,-0.000243
2045.022353,-0.000253
2045.504556,-0.000246
2045.986759,-0.000251
2046.468962,-0.000328
2046.951164,-0.000352
2047.433367,-0.000333
2047.915570,-0.000348
2048.397773,-0.000353
2048.879976,-0.000330
2049.362179,-0.000269
2049.844382,-0.000257
2050.326585,-0.000310
2050.808787,-0.000308
2051.290990,-0.000283
2051.773193,-0.000268
2052.255396,-0.000219
2052.737599,-0.000218
2053.219802,-0.000285
2053.702005,-0.000282
2054.184207,-0.000228
2054.666410,-0.000218
2055.148613,-0.000192
2055.630816,-0.000165
2056.113019,-0.000208
2056.595222,-0.000259
2057.077425,-0.000258
2057.559628,-0.000238
2058.041830,-0.000195
2058.524033,-0.000145
2059.006236,-0.000148
2059.488439,-0.000158
2059.970642,-0.000185
2060.452845,-0.000254
2060.935048,-0.000269
2061.417250,-0.000245
2061.899453,-0.000196
2062.381656,-0.000146
2062.863859,-0.000195
2063.346062,-0.000218
2063.828265,-0.000169
2064.310468,-0.000184
2064.792671,-0.000224
2065.274873,-0.000262
2065.757076,-0.000332
2066.239279,-0.000355
2066.721482,-0.000299
2067.203685,-0.000265
2067.685888,-0.000298
2068.168091,-0.000319
2068.650293,-0.000305
2069.132496,-0.000280
2069.614699,-0.000249
2070.096902,-0.000238
2070.579105,-0.000234
2071.061308,-0.000218
2071.543511,-0.000222
2072.025713,-0.000239
2072.507916,-0.000220
2072.990119,-0.000184
2073.472322,-0.000194
2073.954525,-0.000251
2074.436728,-0.000278
2074.918931,-0.000268
2075.401134,-0.000264
2075.883336,-0.000236
2076.365539,-0.000230
2076.847742,-0.000235
2077.329945,-0.000147
2077.812148,-0.000075
2078.294351,-0.000101
2078.776554,-0.000137
2079.258756,-0.000171
2079.740959,-0.000226
2080.223162,-0.000229
2080.705365,-0.000111
2081.187568,-0.000030
2081.669771,-0.000087
2082.151974,-0.000119
2082.634177,-0.000116
2083.116379,-0.000146
2083.598582,-0.000127
2084.080785,-0.000082
2084.562988,-0.000083
2085.045191,-0.000085
2085.527394,-0.000099
2086.009597,-0.000123
2086.491799,-0.000093
2086.974002,-0.000105
2087.456205,-0.000161
2087.938408,-0.000125
2088.420611,-0.000086
2088.902814,-0.000117
2089.385017,-0.000147
2089.867220,-0.000111
2090.349422,-0.000014
2090.831625,-0.000024
2091.313828,-0.000148
2091.796031,-0.000168
2092.278234,-0.000154
2092.760437,-0.000192
2093.242640,-0.000144
2093.724842,-0.000097
2094.207045,-0.000141
2094.689248,-0.000096
2095.171451,-0.000014
2095.653654,-0.000063
2096.135857,-0.000156
2096.618060,-0.000187
2097.100262,-0.000164
2097.582465,-0.000125
2098.064668,-0.000103
2098.546871,-0.000081
2099.029074,-0.000060
2099.511277,-0.000072
2099.993480,-0.000078
2100.475683,-0.000094
2100.957885,-0.000160
2101.440088,-0.000173
2101.922291,-0.000114
2102.404494,-0.000037
2102.886697,0.000013
2103.368900,-0.000050
2103.851103,-0.000113
2104.333305,-0.000089
2104.815508,-0.000081
2105.297711,-0.000088
2105.779914,-0.000103
2106.262117,-0.000131
2106.744320,-0.000111
2107.226523,0.000004
2107.708726,0.000105
2108.190928,-0.000020
2108.673131,-0.000134
2109.155334,-0.000012
2109.637537,0.000022
2110.119740,-0.000086
2110.601943,-0.000116
2111.084146,-0.000071
2111.566348,-0.000011
2112.048551,0.000015
2112.530754,0.000047
2113.012957,0.000069
2113.495160,-0.000012
2113.977363,-0.000124
2114.459566,-0.000165
2114.941769,-0.000137
2115.423971,-0.000102
2115.906174,-0.000047
2116.388377,0.000015
2116.870580,0.000006
2117.352783,0.000015
2117.834986,0.000038
2118.317189,-0.000020
2118.799391,-0.000050
2119.281594,0.000006
2119.763797,0.000058
2120.246000,0.000054
2120.728203,0.000033
2121.210406,0.000032
2121.692609,0.000024
2122.174812,-0.000013
2122.657014,-0.000059
2123.139217,0.000019
2123.621420,0.000155
2124.103623,0.000096
2124.585826,-0.000039
2125.068029,-0.000044
2125.550232,-0.000011
2126.032434,0.000023
2126.514637,0.000086
2126.996840,0.000095
2127.479043,0.000083
2127.961246,0.000132
2128.443449,0.000141
2128.925652,0.000091
2129.407854,0.000087
2129.890057,0.000067
2130.372260,0.000005
2130.854463,0.000025
2131.336666,0.000091
2131.818869,0.000112
2132.301072,0.000108
2132.783275,0.000086
2133.265477,0.000044
2133.747680,0.000016
2134.229883,0.000078
2134.712086,0.000170
2135.194289,0.000188
2135.676492,0.000178
2136.158695,0.000112
2136.640897,0.000025
2137.123100,0.000048
2137.605303,0.000035
2138.087506,-0.000015
2138.569709,0.000039
2139.051912,0.000085
2139.534115,0.000101
2140.016318,0.000102
2140.498520,0.000042
2140.980723,0.000048
2141.462926,0.000109
2141.945129,0.000106
2142.427332,0.000104
2142.909535,0.000084
2143.391738,0.000065
2143.873940,0.000122
2144.356143,0.000122
2144.838346,0.000052
2145.320549,0.000023
2145.802752,0.000044
2146.284955,0.000084
2146.767158,0.000065
2147.249361,0.000060
2147.731563,0.000116
2148.213766,0.000116
2148.695969,0.000087
2149.178172,0.000049
2149.660375,-0.000007
2150.142578,-0.000027
2150.624781,0.000038
2151.106983,0.000156
2151.589186,0.000153
2152.071389,0.000067
2152.553592,0.000014
2153.035795,-0.000050
2153.517998,-0.000048
2154.000201,0.000054
2154.482404,0.000155
2154.964606,0.000157
2155.446809,0.000084
2155.929012,0.000060
2156.411215,0.000075
2156.893418,0.000062
2157.375621,-0.000009
2157.857824,-0.000030
2158.340026,0.000054
2158.822229,0.000047
2159.304432,0.000008
2159.786635,0.000052
2160.268838,0.000051
2160.751041,0.000043
2161.233244,0.000075
2161.715446,0.000087
2162.197649,0.000088
2162.679852,0.000066
2163.162055,0.000038
2163.644258,0.000025
2164.126461,-0.000006
2164.608664,-0.000004
2165.090867,0.000073
2165.573069,0.000149
2166.055272,0.000141
2166.537475,0.000041
2167.019678,-0.000008
2167.501881,0.000092
2167.984084,0.000145
2168.466287,0.000079
2168.948489,0.000066
2169.430692,0.000079
2169.912895,0.000044
2170.395098,0.000017
2170.877301,0.000000
2171.359504,-0.000009
2171.841707,0.000010
2172.323910,0.000090
2172.806112,0.000165
2173.288315,0.000098
2173.770518,-0.000000
2174.252721,-0.000021
2174.734924,-0.000040
2175.217127,-0.000027
2175.699330,0.000051
2176.181532,0.000110
2176.663735,0.000105
2177.145938,0.000044
2177.628141,-0.000037
2178.110344,-0.000065
2178.592547,-0.000021
2179.074750,0.000037
2179.556953,0.000061
2180.039155,0.000035
2180.521358,-0.000019
2181.003561,-0.000054
2181.485764,-0.000016
2181.967967,0.000038
2182.450170,0.000028
2182.932373,0.000067
2183.414575,0.000162
2183.896778,0.000122
2184.378981,-0.000019
2184.861184,-0.000047
2185.343387,0.000018
2185.825590,0.000068
2186.307793,0.000152
2186.789995,0.000183
2187.272198,0.000119
2187.754401,0.000111
2188.236604,0.000125
2188.718807,0.000108
2189.201010,0.000127
2189.683213,0.000201
2190.165416,0.000252
2190.647618,0.000197
2191.129821,0.000160
2191.612024,0.000191
2192.094227,0.000185
2192.576430,0.000199
2193.058633,0.000266
2193.540836,0.000307
2194.023038,0.000306
2194.505241,0.000295
2194.987444,0.000280
2195.469647,0.000249
2195.951850,0.000274
2196.434053,0.000386
2196.916256,0.000415
2197.398459,0.000339
2197.880661,0.000358
2198.362864,0.000419
2198.845067,0.000380
2199.327270,0.000363
2199.809473,0.000384
2200.291676,0.000357
2200.773879,0.000370
2201.256081,0.000398
2201.738284,0.000364
2202.220487,0.000346
2202.702690,0.000412
2203.184893,0.000486
2203.667096,0.000419
2204.149299,0.000337
2204.631502,0.000343
2205.113704,0.000336
2205.595907,0.000430
2206.078110,0.000560
2206.560313,0.000549
2207.042516,0.000544
2207.524719,0.000558
2208.006922,0.000517
2208.489124,0.000526
2208.971327,0.000610
2209.453530,0.000648
2209.935733,0.000566
2210.417936,0.000471
2210.900139,0.000471
2211.382342,0.000507
2211.864545,0.000514
2212.346747,0.000520
2212.828950,0.000519
2213.311153,0.000468
2213.793356,0.000422
2214.275559,0.000413
2214.757762,0.000374
2215.239965,0.000343
2215.722167,0.000391
2216.204370,0.000454
2216.686573,0.000445
2217.168776,0.000358
2217.650979,0.000289
2218.133182,0.000299
2218.615385,0.000310
2219.097587,0.000292
2219.579790,0.000245
2220.061993,0.000178
2220.544196,0.000177
2221.026399,0.000206
2221.508602,0.000177
2221.990805,0.000078
2222.473008,-0.000049
2222.955210,-0.000093
2223.437413,-0.000084
2223.919616,-0.000103
2224.401819,-0.000070
2224.884022,0.000004
2225.366225,0.000020
2225.848428,0.000058
2226.330630,0.000150
2226.812833,0.000168
2227.295036,0.000193
2227.777239,0.000312
2228.259442,0.000354
2228.741645,0.000350
2229.223848,0.000384
2229.706051,0.000402
2230.188253,0.000439
2230.670456,0.000485
2231.152659,0.000500
2231.634862,0.000477
2232.117065,0.000482
2232.599268,0.000592
2233.081471,0.000672
2233.563673,0.000681
2234.045876,0.000721
2234.528079,0.000717
2235.010282,0.000662
2235.492485,0.000685
2235.974688,0.000777
2236.456891,0.000808
2236.939094,0.000747
2237.421296,0.000725
2237.903499,0.000738
2238.385702,0.000664
2238.867905,0.000644
2239.350108,0.000705
2239.832311,0.000654
2240.314514,0.000605
2240.796716,0.000625
2241.278919,0.000572
2241.761122,0.000509
2242.243325,0.000503
2242.725528,0.000492
2243.207731,0.000438
2243.689934,0.000394
2244.172137,0.000403
2244.654339,0.000395
2245.136542,0.000356
2245.618745,0.000304
2246.100948,0.000242
2246.583151,0.000252
2247.065354,0.000270
2247.547557,0.000197
2248.029759,0.000168
2248.511962,0.000196
2248.994165,0.000166
2249.476368,0.000139
2249.958571,0.000109
2250.440774,0.000003
2250.922977,-0.000088
2251.405179,-0.000122
2251.887382,-0.000141
2252.369585,-0.000144
2252.851788,-0.000146
2253.333991,-0.000149
2253.816194,-0.000174
2254.298397,-0.000209
2254.780600,-0.000222
2255.262802,-0.000269
2255.745005,-0.000311
2256.227208,-0.000251
2256.709411,-0.000167
2257.191614,-0.000170
2257.673817,-0.000198
2258.156020,-0.000155
2258.638222,-0.000144
2259.120425,-0.000221
2259.602628,-0.000270
2260.084831,-0.000282
2260.567034,-0.000302
2261.049237,-0.000319
2261.531440,-0.000304
2262.013643,-0.000278
2262.495845,-0.000295
2262.978048,-0.000305
2263.460251,-0.000286
2263.942454,-0.000294
2264.424657,-0.000301
2264.906860,-0.000295
2265.389063,-0.000282
2265.871265,-0.000242
2266.353468,-0.000220
2266.835671,-0.000284
2267.317874,-0.000342
2267.800077,-0.000266
2268.282280,-0.000233
2268.764483,-0.000328
2269.246686,-0.000324
2269.728888,-0.000263
2270.211091,-0.000310
2270.693294,-0.000360
2271.175497,-0.000300
2271.657700,-0.000255
2272.139903,-0.000318
2272.622106,-0.000321
2273.104308,-0.000237
2273.586511,-0.000192
2274.068714,-0.000194
2274.550917,-0.000248
2275.033120,-0.000271
2275.515323,-0.000255
2275.997526,-0.000276
2276.479729,-0.000272
2276.961931,-0.000280
2277.444134,-0.000267
2277.926337,-0.000153
2278.408540,-0.000143
2278.890743,-0.000279
2279.372946,-0.000276
2279.855149,-0.000205
2280.337351,-0.000169
2280.819554,-0.000069
2281.301757,-0.000041
2281.783960,-0.000073
2282.266163,0.000002
2282.748366,0.000068
2283.230569,0.000057
2283.712771,-0.000017
2284.194974,-0.000085
2284.677177,-0.000035
2285.159380,0.000023
2285.641583,0.000027
2286.123786,0.000077
2286.605989,0.000161
2287.088192,0.000148
2287.570394,0.000077
2288.052597,0.000118
2288.534800,0.000126
2289.017003,0.000029
2289.499206,0.000039
2289.981409,0.000091
2290.463612,0.000087
2290.945814,0.000110
2291.428017,0.000079
2291.910220,0.000032
2292.392423,0.000114
2292.874626,0.000159
2293.356829,0.000106
2293.839032,0.000076
2294.321235,0.000021
2294.803437,0.000032
2295.285640,0.000129
2295.767843,0.000069
2296.250046,0.000000
2296.732249,0.000129
2297.214452,0.000255
2297.696655,0.000288
2298.178857,0.000220
2298.661060,0.000122
2299.143263,0.000240
2299.625466,0.000357
2300.107669,0.000188
2300.589872,-0.000017
2301.072075,-0.000056
2301.554278,0.000010
2302.036480,0.000024
2302.518683,-0.000100
2303.000886,-0.000171
2303.483089,-0.000018
2303.965292,0.000144
2304.447495,-0.000024
2304.929698,-0.000338
2305.411900,-0.000298
2305.894103,-0.000054
2306.376306,-0.000120
2306.858509,-0.000405
2307.340712,-0.000424
2307.822915,-0.000171
2308.305118,-0.000123
2308.787320,-0.000511
2309.269523,-0.000884
2309.751726,-0.000626
2310.233929,-0.000095
2310.716132,-0.000340
2311.198335,-0.000860
2311.680538,-0.000533
2312.162741,0.000211
2312.644943,0.000125
2313.127146,-0.000640
2313.609349,-0.000696
2314.091552,0.000107
2314.573755,0.000344
2315.055958,-0.000370
2315.538161,-0.000666
2316.020363,0.000175
2316.502566,0.000731
2316.984769,-0.000025
2317.466972,-0.000787
2317.949175,-0.000044
2318.431378,0.000789
2318.913581,0.000025
2319.395784,-0.001008
2319.877986,-0.000166
2320.360189,0.000959
2320.842392,0.000157
2321.324595,-0.001127
2321.806798,-0.000217
2322.289001,0.001171
2322.771204,0.000288
2323.253406,-0.001215
2323.735609,-0.000053
2324.217812,0.001514
2324.700015,0.000459
2325.182218,-0.001121
2325.664421,0.000139
2326.146624,0.001675
2326.628827,0.000578
2327.111029,-0.000814
2327.593232,0.000650
2328.075435,0.001953
2328.557638,0.000469
2329.039841,-0.000796
2329.522044,0.001018
2330.004247,0.001937
2330.486449,0.000028
2330.968652,-0.000640
2331.450855,0.001546
2331.933058,0.001729
2332.415261,-0.000518
2332.897464,-0.000226
2333.379667,0.002036
2333.861870,0.001383
2334.344072,-0.000664
2334.826275,0.000723
2335.308478,0.002374
2335.790681,0.000636
2336.272884,-0.000672
2336.755087,0.001603
2337.237290,0.002146
2337.719492,-0.000131
2338.201695,0.000251
2338.683898,0.002357
2339.166101,0.001204
2339.648304,-0.000525
2340.130507,0.001495
2340.612710,0.002527
2341.094912,0.000469
2341.577115,0.000589
2342.059318,0.002767
2342.541521,0.001940
2343.023724,0.000521
2343.505927,0.002380
2343.988130,0.003224
2344.470333,0.001753
2344.952535,0.002489
2345.434738,0.004277
2345.916941,0.003665
2346.399144,0.003489
2346.881347,0.005231
2347.363550,0.005738
2347.845753,0.005540
2348.327955,0.006441
2348.810158,0.007218
2349.292361,0.007180
2349.774564,0.006619
2350.256767,0.006131
2350.738970,0.006100
2351.221173,0.005184
2351.703376,0.003933
2352.185578,0.004342
2352.667781,0.003971
2353.149984,0.002288
2353.632187,0.002842
2354.114390,0.002991
2354.596593,0.001011
2355.078796,0.001560
2355.560998,0.002316
2356.043201,0.000621
2356.525404,0.001195
2357.007607,0.001858
2357.489810,0.000096
2357.972013,0.000872
2358.454216,0.001463
2358.936419,-0.000186
2359.418621,0.001027
2359.900824,0.001439
2360.383027,-0.000075
2360.865230,0.001270
2361.347433,0.001242
2361.829636,0.000232
2362.311839,0.001372
2362.794041,0.000540
2363.276244,-0.000108
2363.758447,0.000658
2364.240650,-0.000559
2364.722853,-0.000199
2365.205056,0.000070
2365.687259,-0.000953
2366.169462,-0.000150
2366.651664,-0.000593
2367.133867,-0.000874
2367.616070,-0.000365
2368.098273,-0.001159
2368.580476,-0.000852
2369.062679,-0.000863
2369.544882,-0.001133
2370.027084,-0.000771
2370.509287,-0.001114
2370.991490,-0.001017
2371.473693,-0.001075
2371.955896,-0.001133
2372.438099,-0.000835
2372.920302,-0.000954
2373.402504,-0.000795
2373.884707,-0.000728
2374.366910,-0.000700
2374.849113,-0.000562
2375.331316,-0.000568
2375.813519,-0.000478
2376.295722,-0.000539
2376.777925,-0.000562
2377.260127,-0.000538
2377.742330,-0.000559
2378.224533,-0.000560
2378.706736,-0.000635
2379.188939,-0.000674
2379.671142,-0.000773
2380.153345,-0.000883
2380.635547,-0.000979
2381.117750,-0.000878
2381.599953,-0.000782
2382.082156,-0.000674
2382.564359,-0.000515
2383.046562,-0.000312
2383.528765,-0.000195
2384.010968,-0.000232
2384.493170,-0.000285
2384.975373,-0.000263
2385.457576,-0.000179
2385.939779,-0.000086
2386.421982,-0.000045
2386.904185,0.000034
2387.386388,0.000090
2387.868590,0.000030
2388.350793,-0.000055
2388.832996,-0.000137
2389.315199,-0.000159
2389.797402,-0.000093
2390.279605,-0.000034
2390.761808,-0.000016
2391.244011,-0.000001
2391.726213,-0.000049
2392.208416,-0.000148
2392.690619,-0.000147
2393.172822,-0.000064
2393.655025,-0.000047
2394.137228,-0.000047
2394.619431,0.000001
2395.101633,-0.000013
2395.583836,-0.000078
2396.066039,-0.000091
2396.548242,-0.000046
2397.030445,0.000009
2397.512648,0.000036
2397.994851,0.000044
2398.477053,0.000011
2398.959256,-0.000032
2399.441459,-0.000012
2399.923662,0.000021
2400.405865,0.000001
2400.888068,0.000000
2401.370271,0.000055
2401.852474,0.000061
2402.334676,0.000052
2402.816879,0.000066
2403.299082,0.000048
2403.781285,0.000012
2404.263488,-0.000028
2404.745691,0.000001
2405.227894,0.000035
2405.710096,-0.000050
2406.192299,-0.000095
2406.674502,-0.000039
2407.156705,-0.000057
2407.638908,-0.000135
2408.121111,-0.000121
2408.603314,-0.000050
2409.085517,-0.000043
2409.567719,-0.000087
2410.049922,-0.000030
2410.532125,0.000125
2411.014328,0.000108
2411.496531,-0.000048
2411.978734,-0.000110
2412.460937,-0.000079
2412.943139,0.000010
2413.425342,0.000075
2413.907545,0.000096
2414.389748,0.000088
2414.871951,-0.000023
2415.354154,-0.000090
2415.836357,-0.000073
2416.318560,-0.000089
2416.800762,-0.000076
2417.282965,-0.000052
2417.765168,-0.000022
2418.247371,0.000033
2418.729574,0.000009
2419.211777,-0.000027
2419.693980,-0.000036
2420.176182,-0.000098
2420.658385,-0.000095
2421.140588,-0.000042
2421.622791,-0.000091
2422.104994,-0.000090
2422.587197,-0.000009
2423.069400,-0.000022
2423.551603,-0.000024
2424.033805,0.000027
2424.516008,0.000010
2424.998211,-0.000048
2425.480414,-0.000061
2425.962617,-0.000045
2426.444820,-0.000065
2426.927023,-0.000082
2427.409225,-0.000048
2427.891428,0.000061
2428.373631,0.000165
2428.855834,0.000080
2429.338037,-0.000052
2429.820240,-0.000013
2430.302443,0.000074
2430.784645,0.000042
2431.266848,-0.000065
2431.749051,-0.000116
2432.231254,-0.000125
2432.713457,-0.000122
2433.195660,-0.000069
2433.677863,-0.000035
2434.160066,-0.000027
2434.642268,0.000020
2435.124471,0.000028
2435.606674,-0.000027
2436.088877,-0.000044
2436.571080,0.000050
2437.053283,0.000161
2437.535486,0.000119
2438.017688,0.000002
2438.499891,-0.000056
2438.982094,-0.000088
2439.464297,-0.000053
2439.946500,0.000011
2440.428703,-0.000033
2440.910906,-0.000110
2441.393109,-0.000085
2441.875311,0.000023
2442.357514,0.000094
2442.839717,0.000085
2443.321920,0.000039
2443.804123,-0.000025
2444.286326,-0.000013
2444.768529,0.000084
2445.250731,0.000065
2445.732934,-0.000016
2446.215137,0.000006
2446.697340,0.000024
2447.179543,0.000019
2447.661746,0.000017
2448.143949,0.000001
2448.626152,0.000036
2449.108354,0.000045
2449.590557,0.000001
2450.072760,-0.000010
2450.554963,-0.000035
2451.037166,-0.000033
2451.519369,0.000017
2452.001572,-0.000049
2452.483774,-0.000147
2452.965977,-0.000073
2453.448180,0.000037
2453.930383,0.000027
2454.412586,0.000016
2454.894789,0.000079
2455.376992,0.000106
2455.859195,0.000059
2456.341397,0.000018
2456.823600,-0.000024
2457.305803,-0.000050
2457.788006,0.000034
2458.270209,0.000130
2458.752412,0.000070
2459.234615,-0.000031
2459.716817,-0.000012
2460.199020,0.000067
2460.681223,0.000118
2461.163426,0.000168
2461.645629,0.000220
2462.127832,0.000169
2462.610035,0.000041
2463.092237,-0.000001
2463.574440,0.000007
2464.056643,0.000016
2464.538846,0.000043
2465.021049,0.000048
2465.503252,0.000048
2465.985455,0.000051
2466.467658,0.000089
2466.949860,0.000107
2467.432063,0.000039
2467.914266,0.000014
2468.396469,0.000027
2468.878672,0.000055
2469.360875,0.000128
2469.843078,0.000159
2470.325280,0.000164
2470.807483,0.000143
2471.289686,0.000100
2471.771889,0.000113
2472.254092,0.000132
2472.736295,0.000088
2473.218498,0.000028
2473.700701,0.000021
2474.182903,0.000050
2474.665106,0.000073
2475.147309,0.000070
2475.629512,0.000043
2476.111715,0.000065
2476.593918,0.000116
2477.076121,0.000133
2477.558323,0.000178
2478.040526,0.000211
2478.522729,0.000161
2479.004932,0.000086
2479.487135,0.000101
2479.969338,0.000187
2480.451541,0.000186
2480.933744,0.000140
2481.415946,0.000131
2481.898149,0.000072
2482.380352,0.000038
2482.862555,0.000154
2483.344758,0.000306
2483.826961,0.000328
2484.309164,0.000255
2484.791366,0.000210
2485.273569,0.000151
2485.755772,0.000038
2486.237975,0.000017
2486.720178,0.000098
2487.202381,0.000104
2487.684584,0.000079
2488.166786,0.000112
2488.648989,0.000116
2489.131192,0.000076
2489.613395,0.000003
2490.095598,-0.000014
2490.577801,0.000068
2491.060004,0.000078
2491.542207,0.000060
2492.024409,0.000124
2492.506612,0.000213
2492.988815,0.000342
2493.471018,0.000410
2493.953221,0.000300
2494.435424,0.000128
2494.917627,0.000020
2495.399829,0.000003
2495.882032,0.000043
2496.364235,0.000027
2496.846438,-0.000005
2497.328641,0.000069
2497.810844,0.000121
2498.293047,0.000110
2498.775250,0.000115
2499.257452,0.000041
2499.739655,0.000002
2500.221858,0.000052
2500.704061,0.000025
2501.186264,0.000058
2501.668467,0.000156
2502.150670,0.000151
2502.632872,0.000119
2503.115075,0.000131
2503.597278,0.000196
2504.079481,0.000210
2504.561684,0.000121
2505.043887,0.000102
2505.526090,0.000188
2506.008293,0.000262
2506.490495,0.000231
2506.972698,0.000146
2507.454901,0.000149
2507.937104,0.000184
2508.419307,0.000174
2508.901510,0.000156
2509.383713,0.000134
2509.865915,0.000133
2510.348118,0.000202
2510.830321,0.000271
2511.312524,0.000270
2511.794727,0.000242
2512.276930,0.000127
2512.759133,-0.000069
2513.241336,-0.000074
2513.723538,0.000040
2514.205741,-0.000002
2514.687944,-0.000026
2515.170147,0.000036
2515.652350,-0.000013
2516.134553,-0.000043
2516.616756,0.000031
2517.098958,0.000018
2517.581161,-0.000007
2518.063364,0.000057
2518.545567,0.000053
2519.027770,0.000021
2519.509973,0.000043
2519.992176,0.000052
2520.474378,0.000074
2520.956581,0.000057
2521.438784,-0.000030
2521.920987,-0.000056
2522.403190,-0.000072
2522.885393,-0.000112
2523.367596,-0.000097
2523.849799,-0.000089
2524.332001,-0.000079
2524.814204,-0.000056
2525.296407,-0.000082
2525.778610,-0.000103
2526.260813,-0.000122
2526.743016,-0.000135
2527.225219,-0.000104
2527.707421,-0.000114
2528.189624,-0.000161
2528.671827,-0.000180
2529.154030,-0.000176
2529.636233,-0.000167
2530.118436,-0.000143
2530.600639,-0.000097
2531.082842,-0.000130
2531.565044,-0.000212
2532.047247,-0.000216
2532.529450,-0.000214
2533.011653,-0.000260
2533.493856,-0.000295
2533.976059,-0.000253
2534.458262,-0.000166
2534.940464,-0.000153
2535.422667,-0.000175
2535.904870,-0.000171
2536.387073,-0.000198
2536.869276,-0.000197
2537.351479,-0.000115
2537.833682,-0.000042
2538.315885,-0.000009
2538.798087,-0.000016
2539.280290,-0.000074
2539.762493,-0.000143
2540.244696,-0.000200
2540.726899,-0.000195
2541.209102,-0.000119
2541.691305,-0.000064
2542.173507,-0.000090
2542.655710,-0.000159
2543.137913,-0.000160
2543.620116,-0.000163
2544.102319,-0.000262
2544.584522,-0.000267
2545.066725,-0.000148
2545.548928,-0.000064
2546.031130,-0.000082
2546.513333,-0.000173
2546.995536,-0.000178
2547.477739,-0.000142
2547.959942,-0.000211
2548.442145,-0.000232
2548.924348,-0.000171
2549.406550,-0.000161
2549.888753,-0.000141
2550.370956,-0.000113
2550.853159,-0.000167
2551.335362,-0.000241
2551.817565,-0.000198
2552.299768,-0.000068
2552.781970,-0.000037
2553.264173,-0.000121
2553.746376,-0.000157
2554.228579,-0.000123
2554.710782,-0.000101
2555.192985,-0.000082
2555.675188,-0.000077
2556.157391,-0.000166
2556.639593,-0.000253
2557.121796,-0.000246
2557.603999,-0.000245
2558.086202,-0.000248
2558.568405,-0.000205
2559.050608,-0.000157
2559.532811,-0.000137
2560.015013,-0.000140
2560.497216,-0.000132
2560.979419,-0.000150
2561.461622,-0.000251
2561.943825,-0.000309
2562.426028,-0.000278
2562.908231,-0.000250
2563.390434,-0.000167
2563.872636,-0.000123
2564.354839,-0.000218
2564.837042,-0.000230
2565.319245,-0.000175
2565.801448,-0.000246
2566.283651,-0.000323
2566.765854,-0.000257
2567.248056,-0.000136
2567.730259,-0.000129
2568.212462,-0.000196
2568.694665,-0.000189
2569.176868,-0.000181
2569.659071,-0.000245
2570.141274,-0.000240
2570.623477,-0.000188
2571.105679,-0.000164
2571.587882,-0.000105
2572.070085,-0.000123
2572.552288,-0.000162
2573.034491,-0.000082
2573.516694,-0.000094
2573.998897,-0.000158
2574.481099,-0.000117
2574.963302,-0.000121
2575.445505,-0.000226
2575.927708,-0.000285
2576.409911,-0.000206
2576.892114,-0.000123
2577.374317,-0.000099
2577.856520,-0.000062
2578.338722,-0.000071
2578.820925,-0.000109
2579.303128,-0.000120
2579.785331,-0.000167
2580.267534,-0.000201
2580.749737,-0.000159
2581.231940,-0.000096
2581.714142,-0.000057
2582.196345,-0.000050
2582.678548,-0.000037
2583.160751,-0.000016
2583.642954,-0.000026
2584.125157,-0.000071
2584.607360,-0.000130
2585.089562,-0.000129
2585.571765,-0.000086
2586.053968,-0.000135
2586.536171,-0.000215
2587.018374,-0.000197
2587.500577,-0.000154
2587.982780,-0.000165
2588.464983,-0.000195
2588.947185,-0.000199
2589.429388,-0.000134
2589.911591,-0.000037
2590.393794,0.000008
2590.875997,-0.000011
2591.358200,-0.000077
2591.840403,-0.000118
2592.322605,-0.000149
2592.804808,-0.000206
2593.287011,-0.000154
2593.769214,-0.000094
2594.251417,-0.000176
2594.733620,-0.000208
2595.215823,-0.000142
2595.698026,-0.000105
2596.180228,-0.000123
2596.662431,-0.000204
2597.144634,-0.000246
2597.626837,-0.000148
2598.109040,-0.000107
2598.591243,-0.000206
2599.073446,-0.000216
2599.555648,-0.000168
2600.037851,-0.000175
2600.520054,-0.000124
2601.002257,-0.000095
2601.484460,-0.000142
2601.966663,-0.000124
2602.448866,-0.000093
2602.931069,-0.000134
2603.413271,-0.000180
2603.895474,-0.000185
2604.377677,-0.000190
2604.859880,-0.000207
2605.342083,-0.000159
2605.824286,-0.000082
2606.306489,-0.000095
2606.788691,-0.000181
2607.270894,-0.000208
2607.753097,-0.000132
2608.235300,-0.000086
2608.717503,-0.000091
2609.199706,-0.000066
2609.681909,-0.000076
2610.164111,-0.000130
2610.646314,-0.000145
2611.128517,-0.000115
2611.610720,-0.000107
2612.092923,-0.000177
2612.575126,-0.000235
2613.057329,-0.000146
2613.539532,0.000012
2614.021734,0.000058
2614.503937,-0.000006
2614.986140,-0.000049
2615.468343,-0.000059
2615.950546,-0.000079
2616.432749,-0.000087
2616.914952,-0.000107
2617.397154,-0.000107
2617.879357,0.000012
2618.361560,0.000111
2618.843763,0.000074
2619.325966,0.000022
2619.808169,0.000006
2620.290372,0.000013
2620.772575,0.000018
2621.254777,-0.000002
2621.736980,-0.000029
2622.219183,-0.000023
2622.701386,0.000030
2623.183589,0.000004
2623.665792,-0.000052
2624.147995,0.000038
2624.630197,0.000127
2625.112400,0.000104
2625.594603,0.000076
2626.076806,0.000106
2626.559009,0.000161
2627.041212,0.000133
2627.523415,0.000022
2628.005618,-0.000081
2628.487820,-0.000089
2628.970023,0.000024
2629.452226,0.000118
2629.934429,0.000117
2630.416632,0.000089
2630.898835,0.000052
2631.381038,0.000065
2631.863240,0.000140
2632.345443,0.000148
2632.827646,0.000139
2633.309849,0.000167
2633.792052,0.000124
2634.274255,0.000042
2634.756458,0.000054
2635.238661,0.000183
2635.720863,0.000203
2636.203066,0.000088
2636.685269,0.000092
2637.167472,0.000140
2637.649675,0.000124
2638.131878,0.000110
2638.614081,0.000127
2639.096283,0.000172
2639.578486,0.000129
2640.060689,0.000077
2640.542892,0.000110
2641.025095,0.000082
2641.507298,0.000031
2641.989501,0.000036
2642.471703,0.000039
2642.953906,0.000078
2643.436109,0.000124
2643.918312,0.000061
2644.400515,-0.000033
2644.882718,-0.000040
2645.364921,-0.000015
2645.847124,-0.000010
2646.329326,-0.000025
2646.811529,-0.000063
2647.293732,-0.000069
2647.775935,0.000014
2648.258138,0.000084
2648.740341,0.000028
2649.222544,-0.000082
2649.704746,-0.000148
2650.186949,-0.000109
2650.669152,-0.000041
2651.151355,-0.000112
2651.633558,-0.000181
2652.115761,-0.000143
2652.597964,-0.000149
2653.080167,-0.000174
2653.562369,-0.000111
2654.044572,0.000052
2654.526775,0.000159
2655.008978,0.000061
2655.491181,-0.000057
2655.973384,-0.000132
2656.455587,-0.000198
2656.937789,-0.000137
2657.419992,-0.000114
2657.902195,-0.000163
2658.384398,-0.000126
2658.866601,-0.000075
2659.348804,-0.000048
2659.831007,-0.000063
2660.313210,-0.000061
2660.795412,-0.000007
2661.277615,-0.000020
2661.759818,-0.000079
2662.242021,-0.000131
2662.724224,-0.000188
2663.206427,-0.000274
2663.688630,-0.000281
2664.170832,-0.000137
2664.653035,-0.000065
2665.135238,-0.000079
2665.617441,-0.000047
2666.099644,0.000024
2666.581847,0.000113
2667.064050,0.000065
2667.546253,-0.000108
2668.028455,-0.000158
2668.510658,-0.000085
2668.992861,-0.000061
2669.475064,-0.000035
2669.957267,0.000051
2670.439470,0.000046
2670.921673,-0.000008
2671.403875,0.000034
2671.886078,0.000052
2672.368281,-0.000010
2672.850484,-0.000038
2673.332687,-0.000000
2673.814890,0.000028
2674.297093,-0.000004
2674.779295,-0.000066
2675.261498,-0.000123
2675.743701,-0.000195
2676.225904,-0.000204
2676.708107,-0.000098
2677.190310,-0.000048
2677.672513,-0.000090
2678.154716,-0.000112
2678.636918,-0.000134
2679.119121,-0.000109
2679.601324,-0.000082
2680.083527,-0.000121
2680.565730,-0.000131
2681.047933,-0.000181
2681.530136,-0.000191
2682.012338,-0.000048
2682.494541,-0.000014
2682.976744,-0.000083
2683.458947,-0.000071
2683.941150,-0.000035
2684.423353,-0.000049
2684.905556,-0.000091
2685.387759,-0.000050
2685.869961,-0.000003
2686.352164,-0.000016
2686.834367,0.000016
2687.316570,0.000006
2687.798773,-0.000050
2688.280976,-0.000094
2688.763179,-0.000175
2689.245381,-0.000153
2689.727584,-0.000066
2690.209787,-0.000084
2690.691990,-0.000038
2691.174193,0.000082
2691.656396,0.000028
2692.138599,-0.000108
2692.620802,-0.000086
2693.103004,-0.000035
2693.585207,-0.000138
2694.067410,-0.000176
2694.549613,-0.000079
2695.031816,-0.000088
2695.514019,-0.000178
2695.996222,-0.000299
2696.478424,-0.000367
2696.960627,-0.000218
2697.442830,-0.000113
2697.925033,-0.000172
2698.407236,-0.000169
2698.889439,-0.000088
2699.371642,0.000009
2699.853844,0.000017
2700.336047,-0.000098
2700.818250,-0.000157
2701.300453,-0.000109
2701.782656,-0.000080
2702.264859,-0.000123
2702.747062,-0.000096
2703.229265,0.000027
2703.711467,0.000054
2704.193670,0.000012
2704.675873,-0.000051
2705.158076,-0.000149
2705.640279,-0.000162
2706.122482,-0.000152
2706.604685,-0.000151
2707.086887,-0.000097
2707.569090,-0.000091
2708.051293,-0.000118
2708.533496,-0.000116
2709.015699,-0.000078
2709.497902,-0.000082
2709.980105,-0.000209
2710.462308,-0.000215
2710.944510,-0.000083
2711.426713,-0.000089
2711.908916,-0.000103
2712.391119,-0.000078
2712.873322,-0.000152
2713.355525,-0.000161
2713.837728,-0.000118
2714.319930,-0.000157
2714.802133,-0.000193
2715.284336,-0.000163
2715.766539,-0.000101
2716.248742,-0.000156
2716.730945,-0.000277
2717.213148,-0.000251
2717.695351,-0.000169
2718.177553,-0.000167
2718.659756,-0.000213
2719.141959,-0.000217
2719.624162,-0.000125
2720.106365,-0.000017
2720.588568,0.000021
2721.070771,-0.000022
2721.552973,-0.000072
2722.035176,-0.000072
2722.517379,-0.000060
2722.999582,-0.000128
2723.481785,-0.000238
2723.963988,-0.000224
2724.446191,-0.000119
2724.928394,-0.000019
2725.410596,0.000012
2725.892799,-0.000065
2726.375002,-0.000097
2726.857205,-0.000100
2727.339408,-0.000154
2727.821611,-0.000123
2728.303814,-0.000057
2728.786016,-0.000059
2729.268219,-0.000050
2729.750422,-0.000004
2730.232625,-0.000022
2730.714828,-0.000144
2731.197031,-0.000272
2731.679234,-0.000258
2732.161436,-0.000093
2732.643639,0.000044
2733.125842,0.000052
2733.608045,0.000002
2734.090248,-0.000074
2734.572451,-0.000159
2735.054654,-0.000164
2735.536857,-0.000122
2736.019059,-0.000148
2736.501262,-0.000153
2736.983465,-0.000029
2737.465668,0.000060
2737.947871,0.000047
2738.430074,0.000018
2738.912277,-0.000046
2739.394479,-0.000084
2739.876682,-0.000076
2740.358885,-0.000153
2740.841088,-0.000233
2741.323291,-0.000197
2741.805494,-0.000144
2742.287697,-0.000173
2742.769900,-0.000218
2743.252102,-0.000157
2743.734305,-0.000094
2744.216508,-0.000143
2744.698711,-0.000166
2745.180914,-0.000111
2745.663117,-0.000074
2746.145320,-0.000066
2746.627522,-0.000079
2747.109725,-0.000129
2747.591928,-0.000186
2748.074131,-0.000164
2748.556334,-0.000086
2749.038537,-0.000111
2749.520740,-0.000151
2750.002943,-0.000090
2750.485145,-0.000132
2750.967348,-0.000228
2751.449551,-0.000166
2751.931754,-0.000115
2752.413957,-0.000197
2752.896160,-0.000256
2753.378363,-0.000203
2753.860565,-0.000107
2754.342768,-0.000084
2754.824971,-0.000132
2755.307174,-0.000150
2755.789377,-0.000167
2756.271580,-0.000166
2756.753783,-0.000044
2757.235986,0.000017
2757.718188,-0.000090
2758.200391,-0.000153
2758.682594,-0.000166
2759.164797,-0.000255
2759.647000,-0.000302
2760.129203,-0.000188
2760.611406,-0.000053
2761.093608,-0.000024
2761.575811,-0.000067
2762.058014,-0.000113
2762.540217,-0.000117
2763.022420,-0.000109
2763.504623,-0.000079
2763.986826,-0.000062
2764.469028,-0.000107
2764.951231,-0.000125
2765.433434,-0.000124
2765.915637,-0.000108
2766.397840,-0.000087
2766.880043,-0.000164
2767.362246,-0.000198
2767.844449,-0.000105
2768.326651,-0.000076
2768.808854,-0.000142
2769.291057,-0.000177
2769.773260,-0.000142
2770.255463,-0.000113
2770.737666,-0.000122
2771.219869,-0.000115
2771.702071,-0.000127
2772.184274,-0.000118
2772.666477,-0.000049
2773.148680,-0.000080
2773.630883,-0.000143
2774.113086,-0.000088
2774.595289,-0.000059
2775.077492,-0.000116
2775.559694,-0.000133
2776.041897,-0.000057
2776.524100,-0.000025
2777.006303,-0.000042
2777.488506,0.000015
2777.970709,-0.000031
2778.452912,-0.000204
2778.935114,-0.000240
2779.417317,-0.000166
2779.899520,-0.000154
2780.381723,-0.000212
2780.863926,-0.000235
2781.346129,-0.000194
2781.828332,-0.000109
2782.310535,-0.000062
2782.792737,-0.000178
2783.274940,-0.000253
2783.757143,-0.000184
2784.239346,-0.000206
2784.721549,-0.000250
2785.203752,-0.000204
2785.685955,-0.000164
2786.168157,-0.000138
2786.650360,-0.000103
2787.132563,-0.000109
2787.614766,-0.000183
2788.096969,-0.000179
2788.579172,-0.000073
2789.061375,-0.000078
2789.543577,-0.000083
2790.025780,-0.000010
2790.507983,-0.000122
2790.990186,-0.000246
2791.472389,-0.000165
2791.954592,-0.000108
2792.436795,-0.000085
2792.918998,-0.000047
2793.401200,-0.000063
2793.883403,-0.000082
2794.365606,-0.000089
2794.847809,-0.000051
2795.330012,0.000000
2795.812215,-0.000011
2796.294418,-0.000052
2796.776620,-0.000100
2797.258823,-0.000091
2797.741026,-0.000039
2798.223229,-0.000052
2798.705432,-0.000103
2799.187635,-0.000085
2799.669838,-0.000056
2800.152041,-0.000100
2800.634243,-0.000127
2801.116446,-0.000132
2801.598649,-0.000094
2802.080852,-0.000023
2802.563055,-0.000103
2803.045258,-0.000202
2803.527461,-0.000128
2804.009663,-0.000050
2804.491866,-0.000052
2804.974069,-0.000026
2805.456272,-0.000046
2805.938475,-0.000142
2806.420678,-0.000123
2806.902881,-0.000086
2807.385084,-0.000169
2807.867286,-0.000198
2808.349489,-0.000173
2808.831692,-0.000125
2809.313895,0.000008
2809.796098,0.000060
2810.278301,0.000014
2810.760504,0.000007
2811.242706,-0.000064
2811.724909,-0.000145
2812.207112,-0.000133
2812.689315,-0.000138
2813.171518,-0.000130
2813.653721,-0.000091
2814.135924,-0.000063
2814.618127,-0.000060
2815.100329,-0.000108
2815.582532,-0.000144
2816.064735,-0.000143
2816.546938,-0.000107
2817.029141,-0.000057
2817.511344,-0.000079
2817.993547,-0.000134
2818.475749,-0.000162
2818.957952,-0.000185
2819.440155,-0.000135
2819.922358,-0.000058
2820.404561,-0.000110
2820.886764,-0.000174
2821.368967,-0.000128
2821.851169,-0.000042
2822.333372,0.000005
2822.815575,0.000023
2823.297778,0.000027
2823.779981,-0.000064
2824.262184,-0.000170
2824.744387,-0.000192
2825.226590,-0.000137
2825.708792,-0.000100
2826.190995,-0.000211
2826.673198,-0.000193
2827.155401,-0.000023
2827.637604,-0.000021
2828.119807,-0.000024
2828.602010,0.000091
2829.084212,0.000135
2829.566415,0.000061
2830.048618,-0.000002
2830.530821,-0.000011
2831.013024,0.000038
2831.495227,0.000139
2831.977430,0.000099
2832.459633,0.000051
2832.941835,0.000182
2833.424038,0.000167
2833.906241,0.000021
2834.388444,-0.000033
2834.870647,-0.000068
2835.352850,-0.000038
2835.835053,-0.000011
2836.317255,-0.000033
2836.799458,0.000082
2837.281661,0.000198
2837.763864,0.000122
2838.246067,0.000024
2838.728270,0.000087
2839.210473,0.000199
2839.692676,0.000213
2840.174878,0.000199
2840.657081,0.000179
2841.139284,0.000156
2841.621487,0.000203
2842.103690,0.000294
2842.585893,0.000364
2843.068096,0.000409
2843.550298,0.000440
2844.032501,0.000363
2844.514704,0.000220
2844.996907,0.000224
2845.479110,0.000314
2845.961313,0.000405
2846.443516,0.000559
2846.925719,0.000585
2847.407921,0.000469
2847.890124,0.000477
2848.372327,0.000561
2848.854530,0.000695
2849.336733,0.000782
2849.818936,0.000688
2850.301139,0.000689
2850.783341,0.000720
2851.265544,0.000705
2851.747747,0.000782
2852.229950,0.000740
2852.712153,0.000708
2853.194356,0.000807
2853.676559,0.000916
2854.158761,0.001090
2854.640964,0.001134
2855.123167,0.001147
2855.605370,0.001322
2856.087573,0.001371
2856.569776,0.001411
2857.051979,0.001566
2857.534182,0.001612
2858.016384,0.001732
2858.498587,0.001913
2858.980790,0.001906
2859.462993,0.001986
2859.945196,0.002107
2860.427399,0.002077
2860.909602,0.002223
2861.391804,0.002433
2861.874007,0.002515
2862.356210,0.002631
2862.838413,0.002819
2863.320616,0.003069
2863.802819,0.003235
2864.285022,0.003402
2864.767225,0.003519
2865.249427,0.003421
2865.731630,0.003573
2866.213833,0.004029
2866.696036,0.004425
2867.178239,0.004597
2867.660442,0.004716
2868.142645,0.004942
2868.624847,0.005061
2869.107050,0.005346
2869.589253,0.005683
2870.071456,0.005838
2870.553659,0.006165
2871.035862,0.006402
2871.518065,0.006375
2872.000268,0.006339
2872.482470,0.006631
2872.964673,0.007194
2873.446876,0.007626
2873.929079,0.007952
2874.411282,0.008089
2874.893485,0.008379
2875.375688,0.008950
2875.857890,0.009308
2876.340093,0.009577
2876.822296,0.009702
2877.304499,0.009815
2877.786702,0.010321
2878.268905,0.010936
2878.751108,0.011235
2879.233311,0.011152
2879.715513,0.011298
2880.197716,0.011991
2880.679919,0.012550
2881.162122,0.012620
2881.644325,0.012715
2882.126528,0.013198
2882.608731,0.013852
2883.090933,0.014200
2883.573136,0.014002
2884.055339,0.014045
2884.537542,0.014829
2885.019745,0.015421
2885.501948,0.015279
2885.984151,0.015006
2886.466353,0.015275
2886.948556,0.015929
2887.430759,0.016112
2887.912962,0.015653
2888.395165,0.015546
2888.877368,0.016250
2889.359571,0.016708
2889.841774,0.016261
2890.323976,0.015936
2890.806179,0.016571
2891.288382,0.017240
2891.770585,0.016837
2892.252788,0.016091
2892.734991,0.016260
2893.217194,0.016868
2893.699396,0.016714
2894.181599,0.015941
2894.663802,0.015613
2895.146005,0.015924
2895.628208,0.015820
2896.110411,0.015173
2896.592614,0.015020
2897.074817,0.015089
2897.557019,0.014483
2898.039222,0.013791
2898.521425,0.013943
2899.003628,0.014022
2899.485831,0.013034
2899.968034,0.012237
2900.450237,0.012640
2900.932439,0.012918
2901.414642,0.011953
2901.896845,0.011415
2902.379048,0.011928
2902.861251,0.011512
2903.343454,0.010749
2903.825657,0.010576
2904.307860,0.009909
2904.790062,0.009068
2905.272265,0.008185
2905.754468,0.006848
2906.236671,0.005737
2906.718874,0.005290
2907.201077,0.005718
2907.683280,0.006876
2908.165482,0.008271
2908.647685,0.009864
2909.129888,0.011355
2909.612091,0.012622
2910.094294,0.014274
2910.576497,0.015934
2911.058700,0.016856
2911.540902,0.017999
2912.023105,0.019673
2912.505308,0.020436
2912.987511,0.021031
2913.469714,0.022587
2913.951917,0.023280
2914.434120,0.023482
2914.916323,0.024941
2915.398525,0.025428
2915.880728,0.025150
2916.362931,0.026447
2916.845134,0.026522
2917.327337,0.025883
2917.809540,0.026940
2918.291743,0.026548
2918.773945,0.026115
2919.256148,0.026707
2919.738351,0.025740
2920.220554,0.025639
2920.702757,0.025496
2921.184960,0.024249
2921.667163,0.024034
2922.149366,0.023200
2922.631568,0.022226
2923.113771,0.021567
2923.595974,0.020341
2924.078177,0.019518
2924.560380,0.018503
2925.042583,0.017411
2925.524786,0.016492
2926.006988,0.015356
2926.489191,0.014348
2926.971394,0.013261
2927.453597,0.012208
2927.935800,0.011168
2928.418003,0.010078
2928.900206,0.009078
2929.382409,0.008130
2929.864611,0.007381
2930.346814,0.006588
2930.829017,0.005712
2931.311220,0.004860
2931.793423,0.004044
2932.275626,0.003511
2932.757829,0.003082
2933.240031,0.002499
2933.722234,0.001998
2934.204437,0.001683
2934.686640,0.001301
2935.168843,0.000925
2935.651046,0.000673
2936.133249,0.000430
2936.615452,0.000306
2937.097654,0.000244
2937.579857,0.000097
2938.062060,0.000035
2938.544263,0.000075
2939.026466,0.000098
2939.508669,0.000117
2939.990872,0.000094
2940.473074,0.000059
2940.955277,0.000054
2941.437480,0.000035
2941.919683,0.000009
2942.401886,-0.000018
2942.884089,0.000034
2943.366292,0.000078
2943.848494,-0.000011
2944.330697,-0.000099
2944.812900,-0.000112
2945.295103,-0.000016
2945.777306,0.000094
2946.259509,0.000131
2946.741712,0.000117
2947.223915,-0.000039
2947.706117,-0.000143
2948.188320,-0.000013
2948.670523,0.000070
2949.152726,0.000029
2949.634929,0.000065
2950.117132,0.000162
2950.599335,0.000244
2951.081537,0.000276
2951.563740,0.000237
2952.045943,0.000147
2952.528146,0.000071
2953.010349,0.000138
2953.492552,0.000224
2953.974755,0.000167
2954.456958,0.000174
2954.939160,0.000250
2955.421363,0.000218
2955.903566,0.000213
2956.385769,0.000315
2956.867972,0.000324
2957.350175,0.000157
2957.832378,0.000028
2958.314580,0.000084
2958.796783,0.000181
2959.278986,0.000259
2959.761189,0.000307
2960.243392,0.000263
2960.725595,0.000284
2961.207798,0.000344
2961.690001,0.000312
2962.172203,0.000271
2962.654406,0.000191
2963.136609,0.000172
2963.618812,0.000323
2964.101015,0.000421
2964.583218,0.000377
2965.065421,0.000320
2965.547623,0.000325
2966.029826,0.000332
2966.512029,0.000316
2966.994232,0.000336
2967.476435,0.000356
2967.958638,0.000343
2968.440841,0.000362
2968.923044,0.000419
2969.405246,0.000476
2969.887449,0.000484
2970.369652,0.000382
2970.851855,0.000270
2971.334058,0.000291
2971.816261,0.000355
2972.298464,0.000387
2972.780666,0.000426
2973.262869,0.000397
2973.745072,0.000325
2974.227275,0.000315
2974.709478,0.000309
2975.191681,0.000283
2975.673884,0.000297
2976.156086,0.000401
2976.638289,0.000510
2977.120492,0.000452
2977.602695,0.000323
2978.084898,0.000271
2978.567101,0.000230
2979.049304,0.000190
2979.531507,0.000228
2980.013709,0.000309
2980.495912,0.000322
2980.978115,0.000379
2981.460318,0.000505
2981.942521,0.000459
2982.424724,0.000310
2982.906927,0.000223
2983.389129,0.000220
2983.871332,0.000323
2984.353535,0.000283
2984.835738,0.000110
2985.317941,0.000124
2985.800144,0.000219
2986.282347,0.000222
2986.764550,0.000160
2987.246752,0.000104
2987.728955,0.000129
2988.211158,0.000140
2988.693361,0.000139
2989.175564,0.000155
2989.657767,0.000133
2990.139970,0.000216
2990.622172,0.000296
2991.104375,0.000246
2991.586578,0.000253
2992.068781,0.000214
2992.550984,0.000130
2993.033187,0.000131
2993.515390,0.000117
2993.997593,0.000186
2994.479795,0.000250
2994.961998,0.000109
2995.444201,0.000029
2995.926404,0.000098
2996.408607,0.000144
2996.890810,0.000108
2997.373013,0.000054
2997.855215,0.000198
2998.337418,0.000331
2998.819621,0.000141
2999.301824,0.000015
2999.784027,0.000091
3000.266230,0.000067
3000.748433,0.000093
3001.230635,0.000209
3001.712838,0.000172
3002.195041,0.000047
3002.677244,-0.000026
3003.159447,-0.000010
3003.641650,0.000108
3004.123853,0.000223
3004.606056,0.000204
3005.088258,0.000089
3005.570461,0.000054
3006.052664,0.000096
3006.534867,0.000093
3007.017070,0.000132
3007.499273,0.000237
3007.981476,0.000271
3008.463678,0.000261
3008.945881,0.000218
3009.428084,0.000103
3009.910287,0.000031
3010.392490,0.000078
3010.874693,0.000149
3011.356896,0.000141
3011.839099,0.000043
3012.321301,-0.000047
3012.803504,0.000012
3013.285707,0.000111
3013.767910,0.000040
3014.250113,0.000008
3014.732316,0.000183
3015.214519,0.000225
3015.696721,0.000108
3016.178924,0.000140
3016.661127,0.000148
3017.143330,0.000073
3017.625533,0.000157
3018.107736,0.000225
3018.589939,0.000133
3019.072142,0.000078
3019.554344,0.000177
3020.036547,0.000342
3020.518750,0.000419
3021.000953,0.000399
3021.483156,0.000311
3021.965359,0.000176
3022.447562,0.000194
3022.929764,0.000345
3023.411967,0.000302
3023.894170,0.000192
3024.376373,0.000273
3024.858576,0.000311
3025.340779,0.000214
3025.822982,0.000191
3026.305185,0.000248
3026.787387,0.000240
3027.269590,0.000244
3027.751793,0.000354
3028.233996,0.000312
3028.716199,0.000168
3029.198402,0.000162
3029.680605,0.000149
3030.162807,0.000141
3030.645010,0.000236
3031.127213,0.000268
3031.609416,0.000239
3032.091619,0.000242
3032.573822,0.000162
3033.056025,0.000038
3033.538227,0.000043
3034.020430,0.000028
3034.502633,-0.000036
3034.984836,0.000095
3035.467039,0.000262
3035.949242,0.000281
3036.431445,0.000302
3036.913648,0.000315
3037.395850,0.000280
3037.878053,0.000211
3038.360256,0.000127
3038.842459,0.000202
3039.324662,0.000303
3039.806865,0.000203
3040.289068,0.000060
3040.771270,0.000007
3041.253473,0.000087
3041.735676,0.000220
3042.217879,0.000197
3042.700082,0.000073
3043.182285,0.000027
3043.664488,0.000060
3044.146691,0.000038
3044.628893,-0.000010
3045.111096,0.000064
3045.593299,0.000152
3046.075502,0.000097
3046.557705,0.000014
3047.039908,0.000095
3047.522111,0.000204
3048.004313,0.000137
3048.486516,0.000054
3048.968719,0.000080
3049.450922,0.000142
3049.933125,0.000160
3050.415328,0.000143
3050.897531,0.000148
3051.379734,0.000078
3051.861936,-0.000005
3052.344139,-0.000005
3052.826342,0.000026
3053.308545,0.000085
3053.790748,0.000104
3054.272951,0.000169
3054.755154,0.000187
3055.237356,0.000021
3055.719559,-0.000066
3056.201762,-0.000100
3056.683965,-0.000084
3057.166168,0.000009
3057.648371,-0.000016
3058.130574,0.000010
3058.612777,0.000057
3059.094979,0.000010
3059.577182,0.000049
3060.059385,0.000132
3060.541588,0.000176
3061.023791,0.000132
3061.505994,0.000101
3061.988197,0.000139
3062.470399,0.000045
3062.952602,0.000005
3063.434805,0.000126
3063.917008,0.000132
3064.399211,0.000090
3064.881414,0.000046
3065.363617,-0.000055
3065.845819,-0.000013
3066.328022,0.000135
3066.810225,0.000159
3067.292428,0.000147
3067.774631,0.000160
3068.256834,0.000105
3068.739037,0.000046
3069.221240,0.000007
3069.703442,-0.000024
3070.185645,-0.000003
3070.667848,-0.000035
3071.150051,-0.000100
3071.632254,-0.000045
3072.114457,0.000018
3072.596660,0.000009
3073.078862,0.000027
3073.561065,0.000059
3074.043268,0.000071
3074.525471,0.000079
3075.007674,0.000073
3075.489877,0.000049
3075.972080,0.000036
3076.454283,0.000047
3076.936485,0.000025
3077.418688,0.000001
3077.900891,0.000065
3078.383094,0.000073
3078.865297,-0.000054
3079.347500,-0.000101
3079.829703,-0.000009
3080.311905,0.000038
3080.794108,-0.000046
3081.276311,-0.000114
3081.758514,-0.000078
3082.240717,-0.000088
3082.722920,-0.000105
3083.205123,-0.000010
3083.687326,0.000044
3084.169528,0.000098
3084.651731,0.000197
3085.133934,0.000060
3085.616137,-0.000132
3086.098340,0.000010
3086.580543,0.000203
3087.062746,0.000131
3087.544948,-0.000017
3088.027151,-0.000057
3088.509354,0.000018
3088.991557,0.000071
3089.473760,-0.000009
3089.955963,-0.000083
3090.438166,-0.000038
3090.920368,0.000039
3091.402571,0.000035
3091.884774,-0.000039
3092.366977,-0.000131
3092.849180,-0.000179
3093.331383,-0.000112
3093.813586,-0.000063
3094.295789,-0.000049
3094.777991,0.000022
3095.260194,0.000034
3095.742397,-0.000004
3096.224600,-0.000058
3096.706803,-0.000108
3097.189006,-0.000116
3097.671209,-0.000122
3098.153411,-0.000037
3098.635614,0.000067
3099.117817,0.000064
3099.600020,0.000011
3100.082223,-0.000047
3100.564426,-0.000032
3101.046629,0.000040
3101.528832,0.000108
3102.011034,0.000131
3102.493237,0.000086
3102.975440,0.000046
3103.457643,0.000058
3103.939846,0.000153
3104.422049,0.000230
3104.904252,0.000204
3105.386454,0.000206
3105.868657,0.000248
3106.350860,0.000284
3106.833063,0.000326
3107.315266,0.000271
3107.797469,0.000121
3108.279672,0.000056
3108.761875,0.000133
3109.244077,0.000229
3109.726280,0.000193
3110.208483,0.000060
3110.690686,-0.000009
3111.172889,-0.000025
3111.655092,-0.000008
3112.137295,0.000093
3112.619497,0.000132
3113.101700,0.000010
3113.583903,-0.000021
3114.066106,0.000112
3114.548309,0.000168
3115.030512,0.000274
3115.512715,0.000371
3115.994918,0.000187
3116.477120,0.000085
3116.959323,0.000135
3117.441526,0.000051
3117.923729,0.000045
3118.405932,0.000193
3118.888135,0.000271
3119.370338,0.000282
3119.852540,0.000260
3120.334743,0.000192
3120.816946,0.000148
3121.299149,0.000043
3121.781352,-0.000026
3122.263555,0.000084
3122.745758,0.000088
3123.227960,0.000047
3123.710163,0.000085
3124.192366,0.000092
3124.674569,0.000150
3125.156772,0.000095
3125.638975,0.000029
3126.121178,0.000218
3126.603381,0.000266
3127.085583,0.000040
3127.567786,-0.000057
3128.049989,-0.000032
3128.532192,-0.000070
3129.014395,-0.000006
3129.496598,0.000120
3129.978801,0.000096
3130.461003,0.000050
3130.943206,0.000071
3131.425409,0.000096
3131.907612,0.000109
3132.389815,0.000068
3132.872018,-0.000045
3133.354221,-0.000120
3133.836424,-0.000097
3134.318626,-0.000076
3134.800829,-0.000067
3135.283032,-0.000040
3135.765235,-0.000013
3136.247438,-0.000028
3136.729641,-0.000164
3137.211844,-0.000299
3137.694046,-0.000280
3138.176249,-0.000159
3138.658452,-0.000022
3139.140655,0.000013
3139.622858,-0.000073
3140.105061,-0.000121
3140.587264,-0.000110
3141.069467,-0.000091
3141.551669,-0.000011
3142.033872,0.000057
3142.516075,0.000067
3142.998278,0.000114
3143.480481,0.000176
3143.962684,0.000174
3144.444887,0.000152
3144.927089,0.000146
3145.409292,0.000121
3145.891495,0.000102
3146.373698,0.000134
3146.855901,0.000189
3147.338104,0.000194
3147.820307,0.000137
3148.302510,0.000105
3148.784712,0.000141
3149.266915,0.000155
3149.749118,0.000053
3150.231321,-0.000015
3150.713524,0.000032
3151.195727,-0.000011
3151.677930,-0.000106
3152.160132,-0.000104
3152.642335,-0.000047
3153.124538,-0.000042
3153.606741,-0.000074
3154.088944,0.000051
3154.571147,0.000186
3155.053350,0.000098
3155.535552,-0.000060
3156.017755,-0.000104
3156.499958,-0.000036
3156.982161,-0.000006
3157.464364,0.000047
3157.946567,0.000160
3158.428770,0.000190
3158.910973,0.000270
3159.393175,0.000398
3159.875378,0.000338
3160.357581,0.000153
3160.839784,0.000111
3161.321987,0.000162
3161.804190,0.000074
3162.286393,0.000011
3162.768595,0.000065
3163.250798,0.000061
3163.733001,-0.000015
3164.215204,-0.000028
3164.697407,0.000134
3165.179610,0.000201
3165.661813,0.000082
3166.144016,0.000111
3166.626218,0.000184
3167.108421,0.000214
3167.590624,0.000328
3168.072827,0.000302
3168.555030,0.000131
3169.037233,0.000041
3169.519436,0.000020
3170.001638,0.000134
3170.483841,0.000199
3170.966044,0.000056
3171.448247,0.000084
3171.930450,0.000276
3172.412653,0.000292
3172.894856,0.000105
3173.377059,-0.000051
3173.859261,0.000085
3174.341464,0.000231
3174.823667,0.000136
3175.305870,0.000127
3175.788073,0.000223
3176.270276,0.000148
3176.752479,0.000126
3177.234681,0.000275
3177.716884,0.000201
3178.199087,0.000045
3178.681290,0.000091
3179.163493,0.000087
3179.645696,0.000111
3180.127899,0.000250
3180.610102,0.000298
3181.092304,0.000303
3181.574507,0.000280
3182.056710,0.000188
3182.538913,0.000185
3183.021116,0.000278
3183.503319,0.000269
3183.985522,0.000192
3184.467724,0.000187
3184.949927,0.000192
3185.432130,0.000186
3185.914333,0.000224
3186.396536,0.000233
3186.878739,0.000127
3187.360942,0.000085
3187.843144,0.000182
3188.325347,0.000177
3188.807550,0.000162
3189.289753,0.000353
3189.771956,0.000448
3190.254159,0.000299
3190.736362,0.000248
3191.218565,0.000341
3191.700767,0.000396
3192.182970,0.000472
3192.665173,0.000497
3193.147376,0.000368
3193.629579,0.000257
3194.111782,0.000303
3194.593985,0.000313
3195.076187,0.000104
3195.558390,0.000185
3196.040593,0.000610
3196.522796,0.000607
3197.004999,0.000403
3197.487202,0.000404
3197.969405,0.000360
3198.451608,0.000373
3198.933810,0.000403
3199.416013,0.000409
3199.898216,0.000462
3200.380419,0.000311
3200.862622,0.000157
3201.344825,0.000225
3201.827028,0.000291
3202.309230,0.000317
3202.791433,0.000346
3203.273636,0.000348
3203.755839,0.000374
3204.238042,0.000463
3204.720245,0.000509
3205.202448,0.000472
3205.684651,0.000457
3206.166853,0.000383
3206.649056,0.000254
3207.131259,0.000222
3207.613462,0.000269
3208.095665,0.000351
3208.577868,0.000399
3209.060071,0.000398
3209.542273,0.000458
3210.024476,0.000518
3210.506679,0.000482
3210.988882,0.000432
3211.471085,0.000430
3211.953288,0.000421
3212.435491,0.000356
3212.917693,0.000287
3213.399896,0.000316
3213.882099,0.000437
3214.364302,0.000389
3214.846505,0.000207
3215.328708,0.000229
3215.810911,0.000233
3216.293114,0.000097
3216.775316,0.000168
3217.257519,0.000398
3217.739722,0.000547
3218.221925,0.000534
3218.704128,0.000458
3219.186331,0.000504
3219.668534,0.000509
3220.150736,0.000397
3220.632939,0.000446
3221.115142,0.000571
3221.597345,0.000564
3222.079548,0.000548
3222.561751,0.000464
3223.043954,0.000353
3223.526157,0.000429
3224.008359,0.000532
3224.490562,0.000586
3224.972765,0.000617
3225.454968,0.000542
3225.937171,0.000463
3226.419374,0.000464
3226.901577,0.000496
3227.383779,0.000489
3227.865982,0.000430
3228.348185,0.000294
3228.830388,0.000059
3229.312591,-0.000043
3229.794794,0.000150
3230.276997,0.000359
3230.759200,0.000384
3231.241402,0.000387
3231.723605,0.000426
3232.205808,0.000446
3232.688011,0.000486
3233.170214,0.000550
3233.652417,0.000633
3234.134620,0.000700
3234.616822,0.000683
3235.099025,0.000597
3235.581228,0.000552
3236.063431,0.000591
3236.545634,0.000680
3237.027837,0.000748
3237.510040,0.000662
3237.992243,0.000526
3238.474445,0.000441
3238.956648,0.000371
3239.438851,0.000465
3239.921054,0.000659
3240.403257,0.000786
3240.885460,0.000737
3241.367663,0.000583
3241.849865,0.000674
3242.332068,0.000794
3242.814271,0.000723
3243.296474,0.000690
3243.778677,0.000582
3244.260880,0.000502
3244.743083,0.000595
3245.225285,0.000548
3245.707488,0.000443
3246.189691,0.000500
3246.671894,0.000562
3247.154097,0.000593
3247.636300,0.000730
3248.118503,0.000817
3248.600706,0.000706
3249.082908,0.000651
3249.565111,0.000642
3250.047314,0.000541
3250.529517,0.000550
3251.011720,0.000615
3251.493923,0.000656
3251.976126,0.000596
3252.458328,0.000326
3252.940531,0.000287
3253.422734,0.000514
3253.904937,0.000496
3254.387140,0.000425
3254.869343,0.000529
3255.351546,0.000521
3255.833749,0.000442
3256.315951,0.000530
3256.798154,0.000759
3257.280357,0.000920
3257.762560,0.000911
3258.244763,0.000814
3258.726966,0.000655
3259.209169,0.000553
3259.691371,0.000587
3260.173574,0.000638
3260.655777,0.000620
3261.137980,0.000418
3261.620183,0.000314
3262.102386,0.000616
3262.584589,0.000816
3263.066792,0.000609
3263.548994,0.000466
3264.031197,0.000492
3264.513400,0.000376
3264.995603,0.000294
3265.477806,0.000382
3265.960009,0.000475
3266.442212,0.000502
3266.924414,0.000364
3267.406617,0.000271
3267.888820,0.000283
3268.371023,0.000232
3268.853226,0.000273
3269.335429,0.000308
3269.817632,0.000326
3270.299835,0.000415
3270.782037,0.000458
3271.264240,0.000569
3271.746443,0.000653
3272.228646,0.000584
3272.710849,0.000600
3273.193052,0.000657
3273.675255,0.000579
3274.157457,0.000476
3274.639660,0.000456
3275.121863,0.000535
3275.604066,0.000578
3276.086269,0.000441
3276.568472,0.000399
3277.050675,0.000580
3277.532877,0.000572
3278.015080,0.000375
3278.497283,0.000360
3278.979486,0.000398
3279.461689,0.000361
3279.943892,0.000346
3280.426095,0.000194
3280.908298,0.000045
3281.390500,0.000197
3281.872703,0.000315
3282.354906,0.000177
3282.837109,0.000114
3283.319312,0.000220
3283.801515,0.000254
3284.283718,0.000243
3284.765920,0.000315
3285.248123,0.000382
3285.730326,0.000417
3286.212529,0.000447
3286.694732,0.000402
3287.176935,0.000197
3287.659138,0.000021
3288.141341,0.000130
3288.623543,0.000282
3289.105746,0.000265
3289.587949,0.000110
3290.070152,-0.000180
3290.552355,-0.000269
3291.034558,-0.000098
3291.516761,-0.000028
3291.998963,0.000046
3292.481166,0.000234
3292.963369,0.000327
3293.445572,0.000258
3293.927775,0.000056
3294.409978,-0.000170
3294.892181,-0.000244
3295.374384,-0.000118
3295.856586,-0.000023
3296.338789,-0.000134
3296.820992,-0.000211
3297.303195,-0.000169
3297.785398,-0.000124
3298.267601,-0.000048
3298.749804,-0.000046
3299.232006,-0.000150
3299.714209,-0.000242
3300.196412,-0.000236
3300.678615,-0.000055
3301.160818,0.000001
3301.643021,-0.000149
3302.125224,-0.000039
3302.607426,0.000211
3303.089629,0.000283
3303.571832,0.000171
3304.054035,-0.000159
3304.536238,-0.000329
3305.018441,-0.000172
3305.500644,-0.000152
3305.982847,-0.000281
3306.465049,-0.000181
3306.947252,0.000069
3307.429455,0.000082
3307.911658,-0.000097
3308.393861,-0.000126
3308.876064,-0.000122
3309.358267,-0.000295
3309.840469,-0.000384
3310.322672,-0.000361
3310.804875,-0.000362
3311.287078,-0.000179
3311.769281,-0.000071
3312.251484,-0.000189
3312.733687,-0.000148
3313.215890,-0.000143
3313.698092,-0.000317
3314.180295,-0.000352
3314.662498,-0.000178
3315.144701,-0.000055
3315.626904,-0.000184
3316.109107,-0.000254
3316.591310,-0.000084
3317.073512,-0.000008
3317.555715,-0.000128
3318.037918,-0.000186
3318.520121,-0.000164
3319.002324,-0.000201
3319.484527,-0.000189
3319.966730,-0.000179
3320.448933,-0.000247
3320.931135,-0.000349
3321.413338,-0.000392
3321.895541,-0.000278
3322.377744,-0.000295
3322.859947,-0.000433
3323.342150,-0.000397
3323.824353,-0.000316
3324.306555,-0.000348
3324.788758,-0.000408
3325.270961,-0.000304
3325.753164,-0.000219
3326.235367,-0.000329
3326.717570,-0.000402
3327.199773,-0.000440
3327.681976,-0.000384
3328.164178,-0.000210
3328.646381,-0.000312
3329.128584,-0.000561
3329.610787,-0.000496
3330.092990,-0.000314
3330.575193,-0.000347
3331.057396,-0.000442
3331.539598,-0.000325
3332.021801,-0.000111
3332.504004,-0.000107
3332.986207,-0.000199
3333.468410,-0.000262
3333.950613,-0.000401
3334.432816,-0.000472
3334.915018,-0.000326
3335.397221,-0.000081
3335.879424,0.000028
3336.361627,-0.000074
3336.843830,-0.000195
3337.326033,-0.000140
3337.808236,-0.000023
3338.290439,-0.000075
3338.772641,-0.000213
3339.254844,-0.000341
3339.737047,-0.000419
3340.219250,-0.000391
3340.701453,-0.000331
3341.183656,-0.000184
3341.665859,-0.000064
3342.148061,-0.000139
3342.630264,-0.000239
3343.112467,-0.000290
3343.594670,-0.000249
3344.076873,-0.000115
3344.559076,-0.000128
3345.041279,-0.000230
3345.523482,-0.000261
3346.005684,-0.000334
3346.487887,-0.000299
3346.970090,-0.000191
3347.452293,-0.000213
3347.934496,-0.000090
3348.416699,0.000047
3348.898902,-0.000009
3349.381104,0.000024
3349.863307,0.000182
3350.345510,0.000337
3350.827713,0.000300
3351.309916,0.000056
3351.792119,-0.000095
3352.274322,0.000006
3352.756525,0.000191
3353.238727,0.000136
3353.720930,0.000027
3354.203133,0.000019
3354.685336,-0.000050
3355.167539,0.000054
3355.649742,0.000188
3356.131945,0.000108
3356.614147,0.000104
3357.096350,0.000133
3357.578553,0.000160
3358.060756,0.000211
3358.542959,0.000068
3359.025162,-0.000082
3359.507365,-0.000116
3359.989568,-0.000145
3360.471770,0.000000
3360.953973,0.000194
3361.436176,0.000143
3361.918379,0.000038
3362.400582,0.000121
3362.882785,0.000144
3363.364988,-0.000009
3363.847190,-0.000039
3364.329393,-0.000084
3364.811596,-0.000293
3365.293799,-0.000280
3365.776002,-0.000057
3366.258205,0.000050
3366.740408,-0.000041
3367.222610,-0.000246
3367.704813,-0.000312
3368.187016,-0.000171
3368.669219,-0.000049
3369.151422,0.000043
3369.633625,0.000132
3370.115828,0.000101
3370.598031,0.000039
3371.080233,0.000096
3371.562436,0.000204
3372.044639,0.000177
3372.526842,-0.000025
3373.009045,-0.000287
3373.491248,-0.000409
3373.973451,-0.000285
3374.455653,-0.000133
3374.937856,-0.000047
3375.420059,-0.000017
3375.902262,-0.000094
3376.384465,-0.000135
3376.866668,-0.000215
3377.348871,-0.000286
3377.831074,-0.000206
3378.313276,-0.000258
3378.795479,-0.000301
3379.277682,-0.000156
3379.759885,-0.000149
3380.242088,-0.000120
3380.724291,0.000112
3381.206494,0.000193
3381.688696,0.000070
3382.170899,-0.000012
3382.653102,-0.000009
3383.135305,-0.000067
3383.617508,-0.000145
3384.099711,-0.000108
3384.581914,-0.000095
3385.064117,-0.000053
3385.546319,0.000106
3386.028522,0.000234
3386.510725,0.000249
3386.992928,0.000108
3387.475131,0.000064
3387.957334,0.000012
3388.439537,-0.000240
3388.921739,-0.000195
3389.403942,0.000001
3389.886145,0.000061
3390.368348,0.000152
3390.850551,0.000098
3391.332754,0.000007
3391.814957,0.000035
3392.297160,0.000092
3392.779362,0.000109
3393.261565,-0.000069
3393.743768,-0.000261
3394.225971,-0.000112
3394.708174,0.000070
3395.190377,-0.000082
3395.672580,-0.000178
3396.154782,-0.000115
3396.636985,-0.000180
3397.119188,-0.000121
3397.601391,-0.000099
3398.083594,-0.000290
3398.565797,-0.000109
3399.048000,0.000305
3399.530202,0.000349
3400.012405,0.000077
3400.494608,-0.000055
3400.976811,0.000070
3401.459014,0.000011
3401.941217,-0.000232
3402.423420,-0.000378
3402.905623,-0.000397
3403.387825,-0.000239
3403.870028,-0.000152
3404.352231,-0.000008
3404.834434,0.000367
3405.316637,0.000365
3405.798840,0.000126
3406.281043,0.000082
3406.763245,-0.000053
3407.245448,-0.000202
3407.727651,-0.000119
3408.209854,0.000006
3408.692057,-0.000041
3409.174260,0.000016
3409.656463,0.000381
3410.138666,0.000462
3410.620868,0.000098
3411.103071,-0.000051
3411.585274,0.000146
3412.067477,0.000260
3412.549680,0.000209
3413.031883,0.000142
3413.514086,0.000027
3413.996288,0.000003
3414.478491,0.000086
3414.960694,-0.000079
3415.442897,-0.000304
3415.925100,-0.000223
3416.407303,0.000094
3416.889506,0.000356
3417.371709,0.000202
3417.853911,0.000026
3418.336114,0.000131
3418.818317,0.000044
3419.300520,-0.000008
3419.782723,0.000148
3420.264926,0.000081
3420.747129,0.000019
3421.229331,0.000132
3421.711534,0.000067
3422.193737,-0.000096
3422.675940,0.000050
3423.158143,0.000330
3423.640346,0.000269
3424.122549,0.000020
3424.604751,-0.000119
3425.086954,-0.000115
3425.569157,0.000039
3426.051360,0.000246
3426.533563,0.000320
3427.015766,0.000185
3427.497969,0.000124
3427.980172,0.000150
3428.462374,-0.000044
3428.944577,-0.000223
3429.426780,-0.000194
3429.908983,-0.000090
3430.391186,-0.000039
3430.873389,0.000014
3431.355592,0.000242
3431.837794,0.000280
3432.319997,0.000118
3432.802200,0.000210
3433.284403,0.000385
3433.766606,0.000491
3434.248809,0.000435
3434.731012,0.000149
3435.213215,0.000088
3435.695417,0.000309
3436.177620,0.000280
3436.659823,0.000026
3437.142026,0.000090
3437.624229,0.000447
3438.106432,0.000581
3438.588635,0.000510
3439.070837,0.000520
3439.553040,0.000496
3440.035243,0.000447
3440.517446,0.000373
3440.999649,0.000210
3441.481852,0.000334
3441.964055,0.000493
3442.446258,0.000225
3442.928460,0.000155
3443.410663,0.000473
3443.892866,0.000464
3444.375069,0.000187
3444.857272,0.000151
3445.339475,0.000134
3445.821678,0.000123
3446.303880,0.000384
3446.786083,0.000368
3447.268286,0.000046
3447.750489,0.000052
3448.232692,0.000121
3448.714895,0.000052
3449.197098,0.000229
3449.679301,0.000519
3450.161503,0.000544
3450.643706,0.000422
3451.125909,0.000387
3451.608112,0.000276
3452.090315,0.000141
3452.572518,0.000364
3453.054721,0.000474
3453.536923,0.000009
3454.019126,-0.000338
3454.501329,-0.000301
3454.983532,-0.000178
3455.465735,0.000015
3455.947938,0.000006
3456.430141,-0.000261
3456.912343,-0.000288
3457.394546,-0.000040
3457.876749,0.000144
3458.358952,0.000280
3458.841155,0.000314
3459.323358,0.000155
3459.805561,-0.000006
3460.287764,-0.000115
3460.769966,-0.000100
3461.252169,0.000017
3461.734372,0.000050
3462.216575,0.000035
3462.698778,0.000015
3463.180981,0.000053
3463.663184,0.000182
3464.145386,0.000305
3464.627589,0.000343
3465.109792,0.000148
3465.591995,-0.000141
3466.074198,-0.000138
3466.556401,-0.000075
3467.038604,-0.000221
3467.520807,-0.000139
3468.003009,0.000107
3468.485212,0.000104
3468.967415,0.000062
3469.449618,0.000004
3469.931821,-0.000066
3470.414024,0.000073
3470.896227,0.000212
3471.378429,0.000273
3471.860632,0.000298
3472.342835,0.000104
3472.825038,-0.000054
3473.307241,0.000080
3473.789444,0.000168
3474.271647,0.000143
3474.753850,0.000180
3475.236052,0.000040
3475.718255,-0.000167
3476.200458,-0.000110
3476.682661,-0.000023
3477.164864,-0.000012
3477.647067,-0.000034
3478.129270,-0.000062
3478.611472,0.000081
3479.093675,0.000127
3479.575878,-0.000007
3480.058081,0.000044
3480.540284,0.000117
3481.022487,-0.000020
3481.504690,-0.000110
3481.986893,-0.000018
3482.469095,0.000005
3482.951298,-0.000030
3483.433501,0.000081
3483.915704,0.000034
3484.397907,-0.000293
3484.880110,-0.000414
3485.362313,-0.000358
3485.844515,-0.000331
3486.326718,-0.000023
3486.808921,0.000252
3487.291124,0.000175
3487.773327,0.000136
3488.255530,0.000075
3488.737733,0.000056
3489.219935,0.000206
3489.702138,0.000094
3490.184341,-0.000192
3490.666544,-0.000293
3491.148747,-0.000231
3491.630950,-0.000088
3492.113153,-0.000054
3492.595356,-0.000249
3493.077558,-0.000274
3493.559761,-0.000140
3494.041964,-0.000329
3494.524167,-0.000376
3495.006370,0.000019
3495.488573,0.000265
3495.970776,0.000204
3496.452978,0.000095
3496.935181,0.000086
3497.417384,0.000100
3497.899587,-0.000050
3498.381790,-0.000331
3498.863993,-0.000430
3499.346196,-0.000323
3499.828399,-0.000287
3500.310601,-0.000213
3500.792804,-0.000140
3501.275007,-0.000218
3501.757210,-0.000166
3502.239413,0.000019
3502.721616,0.000093
3503.203819,0.000164
3503.686021,0.000289
3504.168224,0.000158
3504.650427,-0.000174
3505.132630,-0.000245
3505.614833,-0.000133
3506.097036,-0.000173
3506.579239,-0.000186
3507.061442,-0.000041
3507.543644,0.000054
3508.025847,0.000010
3508.508050,-0.000088
3508.990253,-0.000138
3509.472456,-0.000157
3509.954659,-0.000144
3510.436862,-0.000020
3510.919064,0.000109
3511.401267,0.000113
3511.883470,-0.000030
3512.365673,-0.000185
3512.847876,-0.000281
3513.330079,-0.000292
3513.812282,-0.000103
3514.294484,-0.000024
3514.776687,-0.000204
3515.258890,-0.000258
3515.741093,-0.000100
3516.223296,0.000064
3516.705499,0.000076
3517.187702,0.000002
3517.669905,0.000058
3518.152107,0.000079
3518.634310,-0.000148
3519.116513,-0.000192
3519.598716,0.000038
3520.080919,-0.000004
3520.563122,-0.000200
3521.045325,-0.000112
3521.527527,0.000108
3522.009730,0.000128
3522.491933,0.000032
3522.974136,0.000039
3523.456339,0.000060
3523.938542,-0.000039
3524.420745,-0.000126
3524.902948,-0.000004
3525.385150,0.000157
3525.867353,0.000205
3526.349556,0.000152
3526.831759,-0.000001
3527.313962,-0.000032
3527.796165,0.000005
3528.278368,0.000074
3528.760570,0.000222
3529.242773,0.000225
3529.724976,0.000181
3530.207179,0.000158
3530.689382,0.000199
3531.171585,0.000252
3531.653788,-0.000036
3532.135991,-0.000256
3532.618193,-0.000054
3533.100396,0.000098
3533.582599,0.000197
3534.064802,0.000313
3534.547005,0.000158
3535.029208,0.000062
3535.511411,0.000031
3535.993613,-0.000193
3536.475816,-0.000169
3536.958019,0.000018
3537.440222,0.000135
3537.922425,0.000282
3538.404628,0.000395
3538.886831,0.000598
3539.369034,0.000637
3539.851236,0.000364
3540.333439,0.000185
3540.815642,0.000171
3541.297845,0.000266
3541.780048,0.000250
3542.262251,0.000121
3542.744454,0.000177
3543.226656,0.000106
3543.708859,0.000036
3544.191062,0.000327
3544.673265,0.000459
3545.155468,0.000350
3545.637671,0.000277
3546.119874,0.000346
3546.602076,0.000582
3547.084279,0.000668
3547.566482,0.000575
3548.048685,0.000382
3548.530888,0.000324
3549.013091,0.000528
3549.495294,0.000601
3549.977497,0.000718
3550.459699,0.000859
3550.941902,0.000691
3551.424105,0.000541
3551.906308,0.000653
3552.388511,0.000997
3552.870714,0.001285
3553.352917,0.001323
3553.835119,0.001236
3554.317322,0.001088
3554.799525,0.001119
3555.281728,0.001322
3555.763931,0.001439
3556.246134,0.001480
3556.728337,0.001448
3557.210540,0.001397
3557.692742,0.001457
3558.174945,0.001641
3558.657148,0.001800
3559.139351,0.001761
3559.621554,0.001832
3560.103757,0.002046
3560.585960,0.002058
3561.068162,0.002212
3561.550365,0.002432
3562.032568,0.002500
3562.514771,0.002676
3562.996974,0.002673
3563.479177,0.002674
3563.961380,0.002974
3564.443583,0.003273
3564.925785,0.003438
3565.407988,0.003313
3565.890191,0.003316
3566.372394,0.003575
3566.854597,0.003646
3567.336800,0.003856
3567.819003,0.004070
3568.301205,0.004106
3568.783408,0.004313
3569.265611,0.004448
3569.747814,0.004528
3570.230017,0.004692
3570.712220,0.004710
3571.194423,0.004634
3571.676626,0.004639
3572.158828,0.004861
3572.641031,0.005077
3573.123234,0.005021
3573.605437,0.005081
3574.087640,0.005268
3574.569843,0.005242
3575.052046,0.005117
3575.534248,0.005054
3576.016451,0.005131
3576.498654,0.005170
3576.980857,0.005022
3577.463060,0.004970
3577.945263,0.005054
3578.427466,0.005075
3578.909668,0.004951
3579.391871,0.004698
3579.874074,0.004669
3580.356277,0.004864
3580.838480,0.004833
3581.320683,0.004688
3581.802886,0.004520
3582.285089,0.004227
3582.767291,0.004070
3583.249494,0.003935
3583.731697,0.003602
3584.213900,0.003328
3584.696103,0.003180
3585.178306,0.003019
3585.660509,0.002948
3586.142711,0.002910
3586.624914,0.002862
3587.107117,0.003205
3587.589320,0.003772
3588.071523,0.004247
3588.553726,0.004842
3589.035929,0.005460
3589.518132,0.006185
3590.000334,0.007089
3590.482537,0.007439
3590.964740,0.006232
3591.446943,0.003765
3591.929146,0.001959
3592.411349,0.001635
3592.893552,0.001690
3593.375754,0.001549
3593.857957,0.001722
3594.340160,0.002136
3594.822363,0.002237
3595.304566,0.002348
3595.786769,0.002776
3596.268972,0.003041
3596.751175,0.003303
3597.233377,0.003783
3597.715580,0.004026
3598.197783,0.004054
3598.679986,0.004199
3599.162189,0.004605
3599.644392,0.005016
3600.126595,0.005095
3600.608797,0.005147
3601.091000,0.005257
3601.573203,0.005344
3602.055406,0.005543
3602.537609,0.005710
3603.019812,0.005789
3603.502015,0.005640
3603.984217,0.005552
3604.466420,0.005871
3604.948623,0.005874
3605.430826,0.005493
3605.913029,0.005526
3606.395232,0.005784
3606.877435,0.005610
3607.359638,0.005235
3607.841840,0.005116
3608.324043,0.005021
3608.806246,0.004896
3609.288449,0.004904
3609.770652,0.004929
3610.252855,0.004760
3610.735058,0.004443
3611.217260,0.004162
3611.699463,0.003893
3612.181666,0.003875
3612.663869,0.004096
3613.146072,0.003968
3613.628275,0.003705
3614.110478,0.003556
3614.592681,0.003374
3615.074883,0.003324
3615.557086,0.003197
3616.039289,0.002837
3616.521492,0.002493
3617.003695,0.002300
3617.485898,0.002373
3617.968101,0.002465
3618.450303,0.002326
3618.932506,0.002249
3619.414709,0.002145
3619.896912,0.001936
3620.379115,0.001903
3620.861318,0.001736
3621.343521,0.001354
3621.825724,0.001197
3622.307926,0.001155
3622.790129,0.001018
3623.272332,0.001069
3623.754535,0.001184
3624.236738,0.001057
3624.718941,0.001062
3625.201144,0.001245
3625.683346,0.001101
3626.165549,0.000769
3626.647752,0.000630
3627.129955,0.000674
3627.612158,0.000670
3628.094361,0.000448
3628.576564,0.000291
3629.058767,0.000382
3629.540969,0.000351
3630.023172,0.000266
3630.505375,0.000534
3630.987578,0.000808
3631.469781,0.000538
3631.951984,0.000143
3632.434187,0.000285
3632.916389,0.000423
3633.398592,0.000191
3633.880795,0.000160
3634.362998,0.000333
3634.845201,0.000332
3635.327404,0.000341
3635.809607,0.000431
3636.291809,0.000313
3636.774012,0.000101
3637.256215,0.000057
3637.738418,0.000064
3638.220621,0.000110
3638.702824,0.000217
3639.185027,0.000206
3639.667230,0.000268
3640.149432,0.000418
3640.631635,0.000261
3641.113838,0.000071
3641.596041,0.000188
3642.078244,0.000264
3642.560447,0.000237
3643.042650,0.000360
3643.524852,0.000492
3644.007055,0.000481
3644.489258,0.000460
3644.971461,0.000495
3645.453664,0.000480
3645.935867,0.000384
3646.418070,0.000255
3646.900273,0.000056
3647.382475,-0.000118
3647.864678,-0.000022
3648.346881,0.000104
3648.829084,-0.000105
3649.311287,-0.000319
3649.793490,-0.000107
3650.275693,0.000036
3650.757895,-0.000224
3651.240098,-0.000323
3651.722301,-0.000128
3652.204504,0.000044
3652.686707,0.000200
3653.168910,0.000251
3653.651113,0.000173
3654.133316,0.000128
3654.615518,0.000113
3655.097721,0.000154
3655.579924,0.000170
3656.062127,-0.000041
3656.544330,-0.000170
3657.026533,0.000093
3657.508736,0.000315
3657.990938,0.000275
3658.473141,0.000111
3658.955344,-0.000072
3659.437547,-0.000194
3659.919750,-0.000171
3660.401953,0.000011
3660.884156,0.000165
3661.366359,0.000232
3661.848561,0.000275
3662.330764,0.000236
3662.812967,0.000218
3663.295170,0.000285
3663.777373,0.000291
3664.259576,0.000162
3664.741779,0.000080
3665.223981,0.000175
3665.706184,0.000159
3666.188387,-0.000010
3666.670590,0.000026
3667.152793,0.000159
3667.634996,0.000154
3668.117199,0.000115
3668.599401,-0.000053
3669.081604,-0.000296
3669.563807,-0.000266
3670.046010,-0.000164
3670.528213,-0.000138
3671.010416,0.000135
3671.492619,0.000562
3671.974822,0.000591
3672.457024,0.000352
3672.939227,0.000283
3673.421430,0.000281
3673.903633,0.000103
3674.385836,-0.000082
3674.868039,-0.000252
3675.350242,-0.000383
3675.832444,-0.000427
3676.314647,-0.000291
3676.796850,0.000178
3677.279053,0.000378
3677.761256,0.000279
3678.243459,0.000271
3678.725662,0.000139
3679.207865,-0.000031
3679.690067,0.000093
3680.172270,0.000357
3680.654473,0.000457
3681.136676,0.000360
3681.618879,0.000417
3682.101082,0.000646
3682.583285,0.000542
3683.065487,0.000252
3683.547690,0.000174
3684.029893,0.000131
3684.512096,0.000140
3684.994299,0.000268
3685.476502,0.000372
3685.958705,0.000499
3686.440908,0.000482
3686.923110,0.000236
3687.405313,0.000143
3687.887516,0.000264
3688.369719,0.000301
3688.851922,0.000283
3689.334125,0.000393
3689.816328,0.000457
3690.298530,0.000425
3690.780733,0.000296
3691.262936,-0.000036
3691.745139,-0.000169
3692.227342,0.000143
3692.709545,0.000349
3693.191748,0.000340
3693.673951,0.000426
3694.156153,0.000432
3694.638356,0.000266
3695.120559,0.000206
3695.602762,0.000207
3696.084965,0.000141
3696.567168,0.000026
3697.049371,-0.000000
3697.531573,0.000153
3698.013776,0.000244
3698.495979,0.000192
3698.978182,0.000210
3699.460385,0.000329
3699.942588,0.000294
3700.424791,0.000167
3700.906993,0.000213
3701.389196,0.000098
3701.871399,-0.000198
3702.353602,-0.000140
3702.835805,0.000079
3703.318008,0.000105
3703.800211,0.000060
3704.282414,0.000098
3704.764616,0.000254
3705.246819,0.000328
3705.729022,0.000390
3706.211225,0.000509
3706.693428,0.000268
3707.175631,-0.000008
3707.657834,0.000188
3708.140036,0.000334
3708.622239,0.000208
3709.104442,0.000031
3709.586645,-0.000147
3710.068848,-0.000133
3710.551051,0.000018
3711.033254,0.000035
3711.515457,-0.000117
3711.997659,-0.000235
3712.479862,-0.000104
3712.962065,0.000169
3713.444268,0.000326
3713.926471,0.000282
3714.408674,0.000213
3714.890877,0.000332
3715.373079,0.000379
3715.855282,0.000170
3716.337485,-0.000009
3716.819688,-0.000034
3717.301891,-0.000062
3717.784094,-0.000069
3718.266297,0.000038
3718.748500,0.000092
3719.230702,0.000135
3719.712905,0.000210
3720.195108,0.000157
3720.677311,0.000102
3721.159514,0.000071
3721.641717,-0.000061
3722.123920,-0.000322
3722.606122,-0.000523
3723.088325,-0.000377
3723.570528,-0.000192
3724.052731,-0.000140
3724.534934,-0.000138
3725.017137,-0.000241
3725.499340,-0.000234
3725.981542,-0.000265
3726.463745,-0.000353
3726.945948,-0.000193
3727.428151,-0.000118
3727.910354,-0.000135
3728.392557,-0.000098
3728.874760,-0.000136
3729.356963,-0.000087
3729.839165,-0.000136
3730.321368,-0.000307
3730.803571,-0.000272
3731.285774,-0.000246
3731.767977,-0.000375
3732.250180,-0.000441
3732.732383,-0.000303
3733.214585,-0.000144
3733.696788,-0.000121
3734.178991,-0.000208
3734.661194,-0.000434
3735.143397,-0.000435
3735.625600,-0.000069
3736.107803,-0.000038
3736.590006,-0.000346
3737.072208,-0.000317
3737.554411,0.000010
3738.036614,0.000069
3738.518817,-0.000006
3739.001020,0.000030
3739.483223,0.000033
3739.965426,0.000071
3740.447628,0.000222
3740.929831,0.000319
3741.412034,0.000356
3741.894237,0.000296
3742.376440,0.000128
3742.858643,0.000002
3743.340846,-0.000221
3743.823049,-0.000519
3744.305251,-0.000428
3744.787454,0.000057
3745.269657,0.000422
3745.751860,0.000499
3746.234063,0.000386
3746.716266,0.000230
3747.198469,0.000219
3747.680671,0.000249
3748.162874,0.000081
3748.645077,-0.000216
3749.127280,-0.000382
3749.609483,-0.000195
3750.091686,0.000273
3750.573889,0.000278
3751.056092,-0.000098
3751.538294,-0.000263
3752.020497,-0.000363
3752.502700,-0.000383
3752.984903,0.000178
3753.467106,0.000519
3753.949309,0.000373
3754.431512,0.000370
3754.913714,0.000497
3755.395917,0.000512
3755.878120,0.000406
3756.360323,0.000189
3756.842526,0.000105
3757.324729,0.000291
3757.806932,0.000469
3758.289134,0.000433
3758.771337,0.000298
3759.253540,0.000188
3759.735743,0.000022
3760.217946,0.000053
3760.700149,0.000371
3761.182352,0.000363
3761.664555,0.000237
3762.146757,0.000407
3762.628960,0.000516
3763.111163,0.000501
3763.593366,0.000401
3764.075569,0.000253
3764.557772,0.000325
3765.039975,0.000374
3765.522177,0.000253
3766.004380,0.000153
3766.486583,0.000117
3766.968786,0.000210
3767.450989,0.000256
3767.933192,0.000208
3768.415395,0.000272
3768.897598,0.000255
3769.379800,0.000076
3769.862003,0.000016
3770.344206,0.000109
3770.826409,0.000240
3771.308612,0.000304
3771.790815,0.000254
3772.273018,0.000189
3772.755220,0.000181
3773.237423,0.000158
3773.719626,0.000114
3774.201829,0.000114
3774.684032,0.000202
3775.166235,0.000302
3775.648438,0.000215
3776.130641,0.000120
3776.612843,0.000212
3777.095046,0.000211
3777.577249,0.000152
3778.059452,0.000086
3778.541655,-0.000214
3779.023858,-0.000455
3779.506061,-0.000376
3779.988263,-0.000067
3780.470466,0.000318
3780.952669,0.000389
3781.434872,0.000187
3781.917075,0.000149
3782.399278,0.000186
3782.881481,0.000070
3783.363684,0.000039
3783.845886,0.000126
3784.328089,0.000052
3784.810292,-0.000066
3785.292495,0.000043
3785.774698,0.000175
3786.256901,0.000167
3786.739104,0.000175
3787.221306,0.000156
3787.703509,0.000115
3788.185712,0.000180
3788.667915,0.000199
3789.150118,0.000165
3789.632321,0.000173
3790.114524,0.000143
3790.596726,0.000180
3791.078929,0.000160
3791.561132,-0.000020
3792.043335,0.000046
3792.525538,0.000210
3793.007741,0.000180
3793.489944,0.000240
3793.972147,0.000310
3794.454349,0.000266
3794.936552,0.000216
3795.418755,0.000113
3795.900958,0.000076
3796.383161,0.000054
3796.865364,-0.000081
3797.347567,-0.000014
3797.829769,0.000202
3798.311972,0.000219
3798.794175,0.000160
3799.276378,0.000142
3799.758581,-0.000025
3800.240784,-0.000329
3800.722987,-0.000585
3801.205190,-0.000710
3801.687392,-0.000626
3802.169595,-0.000183
3802.651798,0.000118
3803.134001,-0.000010
3803.616204,-0.000020
3804.098407,0.000228
3804.580610,0.000236
3805.062812,0.000057
3805.545015,0.000079
3806.027218,0.000092
3806.509421,-0.000224
3806.991624,-0.000495
3807.473827,-0.000370
3807.956030,-0.000089
3808.438233,0.000064
3808.920435,0.000112
3809.402638,0.000223
3809.884841,0.000303
3810.367044,0.000235
3810.849247,0.000228
3811.331450,0.000236
3811.813653,0.000228
3812.295855,0.000327
3812.778058,0.000406
3813.260261,0.000440
3813.742464,0.000367
3814.224667,0.000135
3814.706870,0.000118
3815.189073,0.000268
3815.671275,0.000023
3816.153478,-0.000377
3816.635681,-0.000131
3817.117884,0.000386
3817.600087,0.000397
3818.082290,0.000231
3818.564493,0.000201
3819.046696,0.000067
3819.528898,-0.000196
3820.011101,-0.000376
3820.493304,-0.000508
3820.975507,-0.000500
3821.457710,-0.000399
3821.939913,-0.000368
3822.422116,-0.000132
3822.904318,0.000155
3823.386521,0.000090
3823.868724,-0.000134
3824.350927,-0.000167
3824.833130,-0.000138
3825.315333,-0.000233
3825.797536,-0.000145
3826.279739,0.000016
3826.761941,-0.000113
3827.244144,-0.000219
3827.726347,-0.000139
3828.208550,-0.000115
3828.690753,-0.000118
3829.172956,0.000010
3829.655159,0.000138
3830.137361,0.000076
3830.619564,-0.000005
3831.101767,-0.000004
3831.583970,0.000025
3832.066173,0.000086
3832.548376,0.000030
3833.030579,-0.000044
3833.512782,0.000017
3833.994984,0.000071
3834.477187,0.000050
3834.959390,-0.000126
3835.441593,-0.000248
3835.923796,0.000029
3836.405999,0.000206
3836.888202,0.000063
3837.370404,-0.000209
3837.852607,-0.000489
3838.334810,-0.000302
3838.817013,0.000133
3839.299216,0.000160
3839.781419,0.000055
3840.263622,0.000131
3840.745825,0.000286
3841.228027,0.000165
3841.710230,0.000034
3842.192433,0.000141
3842.674636,0.000127
3843.156839,0.000013
3843.639042,-0.000082
3844.121245,-0.000037
3844.603447,0.000117
3845.085650,0.000100
3845.567853,0.000070
3846.050056,0.000042
3846.532259,-0.000041
3847.014462,-0.000019
3847.496665,0.000063
3847.978867,0.000126
3848.461070,0.000101
3848.943273,-0.000014
3849.425476,-0.000096
3849.907679,0.000005
3850.389882,0.000158
3850.872085,0.000110
3851.354288,0.000049
3851.836490,-0.000043
3852.318693,-0.000118
3852.800896,0.000074
3853.283099,-0.000101
3853.765302,-0.000584
3854.247505,-0.000615
3854.729708,0.000026
3855.211910,0.000490
3855.694113,0.000272
3856.176316,-0.000007
3856.658519,-0.000004
3857.140722,-0.000102
3857.622925,-0.000244
3858.105128,-0.000084
3858.587331,0.000066
3859.069533,0.000063
3859.551736,0.000078
3860.033939,0.000073
3860.516142,0.000032
3860.998345,-0.000062
3861.480548,-0.000149
3861.962751,-0.000144
3862.444953,-0.000125
3862.927156,-0.000011
3863.409359,0.000146
3863.891562,0.000152
3864.373765,0.000039
3864.855968,-0.000181
3865.338171,-0.000348
3865.820374,-0.000114
3866.302576,0.000145
3866.784779,0.000032
3867.266982,-0.000041
3867.749185,0.000095
3868.231388,0.000069
3868.713591,-0.000155
3869.195794,-0.000207
3869.677996,-0.000024
3870.160199,-0.000049
3870.642402,-0.000213
3871.124605,-0.000116
3871.606808,0.000047
3872.089011,0.000141
3872.571214,0.000182
3873.053417,0.000125
3873.535619,-0.000108
3874.017822,-0.000433
3874.500025,-0.000516
3874.982228,-0.000300
3875.464431,-0.000020
3875.946634,0.000124
3876.428837,0.000158
3876.911039,0.000232
3877.393242,0.000231
3877.875445,0.000119
3878.357648,0.000080
3878.839851,0.000007
3879.322054,-0.000136
3879.804257,-0.000235
3880.286459,-0.000435
3880.768662,-0.000501
3881.250865,-0.000121
3881.733068,0.000130
3882.215271,0.000021
3882.697474,-0.000035
3883.179677,0.000015
3883.661880,0.000071
3884.144082,0.000210
3884.626285,0.000275
3885.108488,0.000113
3885.590691,-0.000137
3886.072894,-0.000157
3886.555097,0.000191
3887.037300,0.000327
3887.519502,0.000099
3888.001705,-0.000019
3888.483908,0.000002
3888.966111,-0.000026
3889.448314,-0.000087
3889.930517,-0.000238
3890.412720,-0.000309
3890.894923,-0.000206
3891.377125,-0.000176
3891.859328,-0.000023
3892.341531,0.000285
3892.823734,0.000312
3893.305937,0.000215
3893.788140,0.000150
3894.270343,0.000080
3894.752545,0.000139
3895.234748,0.000229
3895.716951,0.000182
3896.199154,0.000110
3896.681357,0.000095
3897.163560,0.000100
3897.645763,0.000059
3898.127966,-0.000092
3898.610168,-0.000102
3899.092371,0.000020
3899.574574,-0.000076
3900.056777,-0.000055
3900.538980,0.000082
3901.021183,-0.000052
3901.503386,-0.000206
3901.985588,-0.000227
3902.467791,-0.000171
3902.949994,-0.000173
3903.432197,-0.000245
3903.914400,-0.000296
3904.396603,-0.000281
3904.878806,-0.000017
3905.361008,0.000120
3905.843211,-0.000051
3906.325414,-0.000022
3906.807617,0.000179
3907.289820,0.000197
3907.772023,0.000153
3908.254226,0.000145
3908.736429,0.000038
3909.218631,-0.000049
3909.700834,0.000026
3910.183037,0.000072
3910.665240,0.000039
3911.147443,0.000110
3911.629646,0.000198
3912.111849,0.000174
3912.594051,0.000252
3913.076254,0.000356
3913.558457,0.000295
3914.040660,0.000208
3914.522863,0.000046
3915.005066,-0.000002
3915.487269,0.000195
3915.969472,0.000144
3916.451674,-0.000025
3916.933877,0.000040
3917.416080,0.000001
3917.898283,0.000029
3918.380486,0.000293
3918.862689,0.000188
3919.344892,-0.000060
3919.827094,-0.000022
3920.309297,-0.000040
3920.791500,-0.000017
3921.273703,0.000129
3921.755906,0.000145
3922.238109,0.000207
3922.720312,0.000267
3923.202515,0.000153
3923.684717,0.000006
3924.166920,-0.000093
3924.649123,-0.000065
3925.131326,0.000068
3925.613529,0.000147
3926.095732,0.000183
3926.577935,0.000130
3927.060137,0.000026
3927.542340,0.000055
3928.024543,0.000042
3928.506746,-0.000040
3928.988949,0.000050
3929.471152,0.000123
3929.953355,0.000050
3930.435558,0.000024
3930.917760,0.000100
3931.399963,0.000243
3931.882166,0.000377
3932.364369,0.000307
3932.846572,0.000053
3933.328775,-0.000033
3933.810978,0.000066
3934.293180,0.000149
3934.775383,0.000237
3935.257586,0.000223
3935.739789,0.000040
3936.221992,-0.000174
3936.704195,-0.000219
3937.186398,0.000028
3937.668600,0.000251
3938.150803,0.000149
3938.633006,-0.000051
3939.115209,-0.000130
3939.597412,-0.000084
3940.079615,0.000076
3940.561818,0.000121
3941.044021,-0.000075
3941.526223,-0.000203
3942.008426,-0.000182
3942.490629,-0.000177
3942.972832,-0.000212
3943.455035,-0.000214
3943.937238,-0.000062
3944.419441,0.000106
3944.901643,0.000133
3945.383846,0.000123
3945.866049,0.000143
3946.348252,0.000096
3946.830455,-0.000052
3947.312658,-0.000111
3947.794861,-0.000053
3948.277064,-0.000028
3948.759266,0.000006
3949.241469,0.000073
3949.723672,0.000110
3950.205875,0.000057
3950.688078,-0.000075
3951.170281,-0.000062
3951.652484,0.000074
3952.134686,0.000052
3952.616889,0.000056
3953.099092,0.000192
3953.581295,0.000100
3954.063498,-0.000088
3954.545701,-0.000166
3955.027904,-0.000256
3955.510107,-0.000227
3955.992309,0.000017
3956.474512,0.000293
3956.956715,0.000274
3957.438918,0.000061
3957.921121,0.000064
3958.403324,0.000115
3958.885527,0.000030
3959.367729,-0.000034
3959.849932,-0.000080
3960.332135,-0.000181
3960.814338,-0.000178
3961.296541,0.000107
3961.778744,0.000337
3962.260947,0.000236
3962.743150,0.000091
3963.225352,0.000126
3963.707555,0.000240
3964.189758,0.000185
3964.671961,0.000051
3965.154164,0.000106
3965.636367,0.000139
3966.118570,0.000034
3966.600772,0.000065
3967.082975,0.000233
3967.565178,0.000262
3968.047381,0.000171
3968.529584,0.000107
3969.011787,0.000000
3969.493990,0.000042
3969.976192,0.000293
3970.458395,0.000285
3970.940598,0.000103
3971.422801,0.000063
3971.905004,-0.000027
3972.387207,-0.000099
3972.869410,-0.000020
3973.351613,0.000037
3973.833815,0.000053
3974.316018,-0.000003
3974.798221,-0.000165
3975.280424,-0.000265
3975.762627,-0.000216
3976.244830,-0.000114
3976.727033,-0.000040
3977.209235,0.000015
3977.691438,0.000127
3978.173641,0.000371
3978.655844,0.000456
3979.138047,0.000166
3979.620250,-0.000106
3980.102453,-0.000080
3980.584656,0.000108
3981.066858,0.000229
3981.549061,0.000169
3982.031264,-0.000024
3982.513467,-0.000196
3982.995670,-0.000110
3983.477873,0.000094
3983.960076,0.000163
3984.442278,0.000166
3984.924481,0.000204
3985.406684,0.000340
3985.888887,0.000526
3986.371090,0.000652
3986.853293,0.000571
3987.335496,0.000326
3987.817699,0.000232
3988.299901,0.000266
3988.782104,0.000126
3989.264307,-0.000089
3989.746510,-0.000031
3990.228713,0.000079
3990.710916,0.000068
3991.193119,0.000109
3991.675321,0.000011
3992.157524,0.000001
3992.639727,0.000255
3993.121930,0.000327
3993.604133,0.000154
3994.086336,-0.000038
3994.568539,0.000015
3995.050742,0.000261
3995.532944,0.000381
3996.015147,0.000338
3996.497350,0.000267
3996.979553,0.000229
3997.461756,0.000169
3997.943959,0.000193
3998.426162,0.000123
3998.908364,-0.000085
3999.390567,0.000091
3999.872770,0.000258
4000.354973,0.000048
