XLabel,Wavenumber
YLabel,Absorbance
FileType,Absorbance
DisplayDirection,20300
PeakDirection,20312
899.790547,0.000763
900.272750,0.000287
900.754953,-0.000622
901.237156,0.000104
901.719359,0.002769
902.201562,0.003801
902.683764,0.002946
903.165967,0.001136
903.648170,-0.000200
904.130373,0.000157
904.612576,0.000952
905.094779,0.000864
905.576982,0.000088
906.059184,0.000046
906.541387,0.000339
907.023590,-0.000324
907.505793,-0.000713
907.987996,-0.000416
908.470199,0.000085
908.952402,0.000803
909.434605,0.000773
909.916807,0.000388
910.399010,0.000232
910.881213,-0.000315
911.363416,-0.000265
911.845619,0.000490
912.327822,0.000148
912.810025,-0.000806
913.292227,-0.000567
913.774430,0.000208
914.256633,0.000299
914.738836,0.000115
915.221039,-0.000487
915.703242,-0.001208
916.185445,-0.000827
916.667648,-0.000145
917.149850,-0.000042
917.632053,0.000006
918.114256,-0.000178
918.596459,-0.000644
919.078662,-0.000589
919.560865,-0.000347
920.043068,-0.000549
920.525270,-0.000492
921.007473,0.000390
921.489676,0.001255
921.971879,0.000521
922.454082,-0.000658
922.936285,-0.000100
923.418488,0.000425
923.900690,0.000153
924.382893,0.000560
924.865096,0.000531
925.347299,-0.000150
925.829502,-0.000030
926.311705,0.000031
926.793908,0.000116
927.276111,0.001182
927.758313,0.001393
928.240516,0.001066
928.722719,0.001236
929.204922,0.000553
929.687125,-0.000021
930.169328,-0.000313
930.651531,-0.000773
931.133733,-0.000472
931.615936,-0.000019
932.098139,0.000625
932.580342,0.000581
933.062545,-0.000365
933.544748,-0.000133
934.026951,0.000109
934.509154,-0.000284
934.991356,-0.000098
935.473559,-0.000240
935.955762,-0.000897
936.437965,-0.000410
936.920168,0.001109
937.402371,0.001192
937.884574,-0.000165
938.366776,-0.000546
938.848979,-0.000023
939.331182,-0.000013
939.813385,-0.000184
940.295588,0.000207
940.777791,0.000487
941.259994,0.000555
941.742197,0.001187
942.224399,0.001362
942.706602,0.000307
943.188805,-0.000281
943.671008,0.000228
944.153211,0.000298
944.635414,0.000059
945.117617,0.000537
945.599819,0.000966
946.082022,0.000585
946.564225,-0.000146
947.046428,-0.000264
947.528631,0.000010
948.010834,-0.000136
948.493037,-0.000100
948.975240,0.000190
949.457442,0.000303
949.939645,0.000455
950.421848,0.000436
950.904051,0.000393
951.386254,0.000590
951.868457,0.000599
952.350660,0.000308
952.832862,0.000057
953.315065,0.000012
953.797268,0.000132
954.279471,0.000429
954.761674,0.000473
955.243877,-0.000064
955.726080,-0.000330
956.208282,0.000033
956.690485,0.000164
957.172688,0.000029
957.654891,0.000187
958.137094,0.000457
958.619297,0.000626
959.101500,0.000624
959.583703,0.000284
960.065905,-0.000116
960.548108,-0.000248
961.030311,0.000045
961.512514,0.000625
961.994717,0.000680
962.476920,0.000302
962.959123,0.000294
963.441325,0.000287
963.923528,0.000109
964.405731,0.000212
964.887934,0.000277
965.370137,0.000129
965.852340,0.000119
966.334543,0.000072
966.816746,0.000020
967.298948,0.000436
967.781151,0.000837
968.263354,0.000845
968.745557,0.000698
969.227760,0.000209
969.709963,0.000036
970.192166,0.000601
970.674368,0.000444
971.156571,-0.000560
971.638774,-0.000713
972.120977,-0.000472
972.603180,-0.000770
973.085383,0.000088
973.567586,0.001539
974.049789,0.000930
974.531991,-0.000276
975.014194,-0.000182
975.496397,0.000109
975.978600,0.000069
976.460803,0.000190
976.943006,0.000485
977.425209,0.000404
977.907411,0.000067
978.389614,0.000200
978.871817,0.000412
979.354020,0.000263
979.836223,0.000038
980.318426,-0.000200
980.800629,-0.000321
981.282831,-0.000120
981.765034,0.000237
982.247237,0.000355
982.729440,0.000362
983.211643,0.000556
983.693846,0.000484
984.176049,0.000217
984.658252,0.000268
985.140454,0.000350
985.622657,0.000280
986.104860,0.000081
986.587063,-0.000111
987.069266,-0.000024
987.551469,0.000064
988.033672,-0.000081
988.515874,-0.000214
988.998077,-0.000146
989.480280,-0.000208
989.962483,-0.000442
990.444686,-0.000185
990.926889,0.000273
991.409092,0.000307
991.891295,0.000192
992.373497,0.000072
992.855700,-0.000004
993.337903,0.000051
993.820106,0.000057
994.302309,-0.000029
994.784512,-0.000046
995.266715,0.000046
995.748917,0.000135
996.231120,0.000161
996.713323,-0.000033
997.195526,-0.000210
997.677729,0.000015
998.159932,0.000165
998.642135,0.000020
999.124338,-0.000082
999.606540,-0.000066
1000.088743,0.000004
1000.570946,0.000013
1001.053149,0.000026
1001.535352,0.000063
1002.017555,0.000057
1002.499758,0.000068
1002.981960,0.000123
1003.464163,0.000196
1003.946366,0.000180
1004.428569,0.000164
1004.910772,0.000174
1005.392975,0.000078
1005.875178,-0.000069
1006.357381,-0.000253
1006.839583,-0.000235
1007.321786,0.000002
1007.803989,0.000039
1008.286192,-0.000024
1008.768395,0.000051
1009.250598,0.000136
1009.732801,0.000134
1010.215003,0.000120
1010.697206,0.000228
1011.179409,0.000291
1011.661612,0.000105
1012.143815,-0.000002
1012.626018,0.000130
1013.108221,0.000155
1013.590423,-0.000003
1014.072626,-0.000039
1014.554829,0.000127
1015.037032,0.000153
1015.519235,0.000014
1016.001438,-0.000066
1016.483641,-0.000101
1016.965844,0.000040
1017.448046,0.000202
1017.930249,0.000256
1018.412452,0.000286
1018.894655,0.000094
1019.376858,0.000055
1019.859061,0.000339
1020.341264,0.000352
1020.823466,0.000109
1021.305669,0.000073
1021.787872,0.000307
1022.270075,0.000362
1022.752278,0.000139
1023.234481,0.000151
1023.716684,0.000395
1024.198887,0.000405
1024.681089,0.000206
1025.163292,0.000148
1025.645495,0.000185
1026.127698,0.000203
1026.609901,0.000344
1027.092104,0.000439
1027.574307,0.000315
1028.056509,0.000280
1028.538712,0.000407
1029.020915,0.000393
1029.503118,0.000259
1029.985321,0.000182
1030.467524,0.000184
1030.949727,0.000301
1031.431930,0.000403
1031.914132,0.000427
1032.396335,0.000446
1032.878538,0.000391
1033.360741,0.000431
1033.842944,0.000653
1034.325147,0.000783
1034.807350,0.000787
1035.289552,0.000721
1035.771755,0.000594
1036.253958,0.000456
1036.736161,0.000418
1037.218364,0.000579
1037.700567,0.000611
1038.182770,0.000481
1038.664973,0.000518
1039.147175,0.000514
1039.629378,0.000400
1040.111581,0.000376
1040.593784,0.000430
1041.075987,0.000493
1041.558190,0.000482
1042.040393,0.000455
1042.522595,0.000487
1043.004798,0.000509
1043.487001,0.000513
1043.969204,0.000479
1044.451407,0.000316
1044.933610,0.000203
1045.415813,0.000272
1045.898015,0.000278
1046.380218,0.000192
1046.862421,0.000124
1047.344624,0.000123
1047.826827,0.000165
1048.309030,0.000061
1048.791233,-0.000056
1049.273436,-0.000068
1049.755638,-0.000090
1050.237841,-0.000154
1050.720044,-0.000252
1051.202247,-0.000188
1051.684450,-0.000033
1052.166653,-0.000033
1052.648856,-0.000095
1053.131058,-0.000185
1053.613261,-0.000213
1054.095464,-0.000079
1054.577667,0.000020
1055.059870,-0.000007
1055.542073,-0.000059
1056.024276,-0.000106
1056.506479,-0.000162
1056.988681,-0.000165
1057.470884,-0.000137
1057.953087,-0.000168
1058.435290,-0.000222
1058.917493,-0.000227
1059.399696,-0.000144
1059.881899,-0.000003
1060.364101,0.000063
1060.846304,-0.000028
1061.328507,-0.000228
1061.810710,-0.000387
1062.292913,-0.000386
1062.775116,-0.000299
1063.257319,-0.000195
1063.739522,-0.000110
1064.221724,-0.000115
1064.703927,-0.000076
1065.186130,0.000060
1065.668333,0.000079
1066.150536,0.000049
1066.632739,0.000062
1067.114942,-0.000063
1067.597144,-0.000180
1068.079347,-0.000140
1068.561550,-0.000127
1069.043753,-0.000084
1069.525956,0.000021
1070.008159,0.000001
1070.490362,-0.000053
1070.972564,-0.000036
1071.454767,0.000024
1071.936970,0.000142
1072.419173,0.000147
1072.901376,-0.000029
1073.383579,-0.000101
1073.865782,-0.000005
1074.347985,0.000057
1074.830187,0.000046
1075.312390,0.000095
1075.794593,0.000194
1076.276796,0.000155
1076.758999,0.000000
1077.241202,-0.000159
1077.723405,-0.000169
1078.205607,0.000089
1078.687810,0.000222
1079.170013,0.000169
1079.652216,0.000280
1080.134419,0.000334
1080.616622,0.000265
1081.098825,0.000249
1081.581028,0.000255
1082.063230,0.000260
1082.545433,0.000214
1083.027636,0.000202
1083.509839,0.000201
1083.992042,0.000170
1084.474245,0.000233
1084.956448,0.000294
1085.438650,0.000318
1085.920853,0.000238
1086.403056,0.000088
1086.885259,0.000090
1087.367462,0.000181
1087.849665,0.000294
1088.331868,0.000290
1088.814071,0.000154
1089.296273,0.000113
1089.778476,0.000098
1090.260679,0.000053
1090.742882,0.000034
1091.225085,0.000075
1091.707288,0.000170
1092.189491,0.000222
1092.671693,0.000230
1093.153896,0.000253
1093.636099,0.000328
1094.118302,0.000296
1094.600505,0.000127
1095.082708,0.000065
1095.564911,0.000119
1096.047114,0.000177
1096.529316,0.000163
1097.011519,0.000166
1097.493722,0.000179
1097.975925,0.000067
1098.458128,0.000039
1098.940331,0.000098
1099.422534,0.000126
1099.904736,0.000238
1100.386939,0.000302
1100.869142,0.000205
1101.351345,0.000134
1101.833548,0.000189
1102.315751,0.000267
1102.797954,0.000329
1103.280156,0.000269
1103.762359,0.000039
1104.244562,-0.000044
1104.726765,0.000049
1105.208968,0.000098
1105.691171,0.000117
1106.173374,0.000066
1106.655577,-0.000068
1107.137779,-0.000100
1107.619982,-0.000008
1108.102185,0.000036
1108.584388,0.000090
1109.066591,0.000176
1109.548794,0.000106
1110.030997,0.000008
1110.513199,0.000037
1110.995402,0.000060
1111.477605,0.000054
1111.959808,0.000090
1112.442011,0.000103
1112.924214,0.000131
1113.406417,0.000240
1113.888620,0.000212
1114.370822,0.000098
1114.853025,0.000108
1115.335228,0.000113
1115.817431,0.000113
1116.299634,0.000132
1116.781837,0.000104
1117.264040,0.000089
1117.746242,0.000064
1118.228445,0.000034
1118.710648,0.000071
1119.192851,0.000099
1119.675054,0.000057
1120.157257,0.000049
1120.639460,0.000114
1121.121663,0.000183
1121.603865,0.000240
1122.086068,0.000250
1122.568271,0.000231
1123.050474,0.000234
1123.532677,0.000208
1124.014880,0.000156
1124.497083,0.000168
1124.979285,0.000309
1125.461488,0.000390
1125.943691,0.000276
1126.425894,0.000261
1126.908097,0.000361
1127.390300,0.000296
1127.872503,0.000197
1128.354706,0.000232
1128.836908,0.000255
1129.319111,0.000265
1129.801314,0.000399
1130.283517,0.000458
1130.765720,0.000359
1131.247923,0.000368
1131.730126,0.000411
1132.212328,0.000336
1132.694531,0.000321
1133.176734,0.000346
1133.658937,0.000256
1134.141140,0.000205
1134.623343,0.000308
1135.105546,0.000315
1135.587748,0.000147
1136.069951,0.000117
1136.552154,0.000247
1137.034357,0.000246
1137.516560,0.000197
1137.998763,0.000266
1138.480966,0.000279
1138.963169,0.000303
1139.445371,0.000412
1139.927574,0.000416
1140.409777,0.000447
1140.891980,0.000462
1141.374183,0.000307
1141.856386,0.000270
1142.338589,0.000311
1142.820791,0.000243
1143.302994,0.000257
1143.785197,0.000287
1144.267400,0.000228
1144.749603,0.000270
1145.231806,0.000357
1145.714009,0.000312
1146.196212,0.000242
1146.678414,0.000215
1147.160617,0.000218
1147.642820,0.000268
1148.125023,0.000295
1148.607226,0.000249
1149.089429,0.000263
1149.571632,0.000376
1150.053834,0.000448
1150.536037,0.000436
1151.018240,0.000362
1151.500443,0.000252
1151.982646,0.000195
1152.464849,0.000228
1152.947052,0.000273
1153.429255,0.000233
1153.911457,0.000172
1154.393660,0.000192
1154.875863,0.000228
1155.358066,0.000241
1155.840269,0.000255
1156.322472,0.000239
1156.804675,0.000198
1157.286877,0.000141
1157.769080,0.000043
1158.251283,-0.000021
1158.733486,0.000041
1159.215689,0.000179
1159.697892,0.000264
1160.180095,0.000207
1160.662298,0.000087
1161.144500,0.000108
1161.626703,0.000220
1162.108906,0.000222
1162.591109,0.000178
1163.073312,0.000155
1163.555515,0.000122
1164.037718,0.000065
1164.519920,0.000005
1165.002123,0.000061
1165.484326,0.000154
1165.966529,0.000171
1166.448732,0.000146
1166.930935,0.000106
1167.413138,0.000066
1167.895340,-0.000023
1168.377543,0.000000
1168.859746,0.000142
1169.341949,0.000135
1169.824152,0.000091
1170.306355,0.000121
1170.788558,0.000091
1171.270761,-0.000060
1171.752963,-0.000162
1172.235166,-0.000075
1172.717369,-0.000080
1173.199572,-0.000225
1173.681775,-0.000229
1174.163978,-0.000147
1174.646181,-0.000113
1175.128383,-0.000141
1175.610586,-0.000197
1176.092789,-0.000217
1176.574992,-0.000260
1177.057195,-0.000311
1177.539398,-0.000286
1178.021601,-0.000275
1178.503804,-0.000215
1178.986006,-0.000064
1179.468209,-0.000034
1179.950412,-0.000107
1180.432615,-0.000157
1180.914818,-0.000146
1181.397021,-0.000128
1181.879224,-0.000171
1182.361426,-0.000115
1182.843629,0.000005
1183.325832,-0.000012
1183.808035,-0.000153
1184.290238,-0.000297
1184.772441,-0.000232
1185.254644,-0.000080
1185.736847,-0.000205
1186.219049,-0.000386
1186.701252,-0.000302
1187.183455,-0.000179
1187.665658,-0.000117
1188.147861,-0.000010
1188.630064,-0.000016
1189.112267,-0.000140
1189.594469,-0.000179
1190.076672,-0.000129
1190.558875,-0.000099
1191.041078,-0.000124
1191.523281,-0.000111
1192.005484,0.000033
1192.487687,0.000191
1192.969889,0.000213
1193.452092,0.000136
1193.934295,0.000098
1194.416498,0.000086
1194.898701,-0.000018
1195.380904,-0.000100
1195.863107,-0.000053
1196.345310,-0.000010
1196.827512,0.000027
1197.309715,0.000062
1197.791918,0.000038
1198.274121,-0.000001
1198.756324,-0.000022
1199.238527,-0.000148
1199.720730,-0.000344
1200.202932,-0.000342
1200.685135,-0.000270
1201.167338,-0.000294
1201.649541,-0.000242
1202.131744,-0.000206
1202.613947,-0.000187
1203.096150,-0.000045
1203.578353,-0.000019
1204.060555,-0.000108
1204.542758,-0.000064
1205.024961,-0.000045
1205.507164,-0.000157
1205.989367,-0.000248
1206.471570,-0.000270
1206.953773,-0.000172
1207.435975,0.000026
1207.918178,0.000067
1208.400381,-0.000044
1208.882584,0.000027
1209.364787,0.000223
1209.846990,0.000255
1210.329193,0.000259
1210.811396,0.000351
1211.293598,0.000406
1211.775801,0.000439
1212.258004,0.000557
1212.740207,0.000710
1213.222410,0.000686
1213.704613,0.000577
1214.186816,0.000641
1214.669018,0.000758
1215.151221,0.000829
1215.633424,0.000968
1216.115627,0.001152
1216.597830,0.001315
1217.080033,0.001516
1217.562236,0.001742
1218.044439,0.001865
1218.526641,0.001821
1219.008844,0.001747
1219.491047,0.001837
1219.973250,0.001974
1220.455453,0.002016
1220.937656,0.002147
1221.419859,0.002472
1221.902061,0.002800
1222.384264,0.003068
1222.866467,0.003373
1223.348670,0.003471
1223.830873,0.003259
1224.313076,0.003184
1224.795279,0.003404
1225.277481,0.003662
1225.759684,0.003860
1226.241887,0.004155
1226.724090,0.004649
1227.206293,0.005226
1227.688496,0.005833
1228.170699,0.006355
1228.652902,0.006535
1229.135104,0.006499
1229.617307,0.006611
1230.099510,0.006906
1230.581713,0.007294
1231.063916,0.007701
1231.546119,0.008154
1232.028322,0.008881
1232.510524,0.009864
1232.992727,0.010859
1233.474930,0.011561
1233.957133,0.011699
1234.439336,0.011747
1234.921539,0.012233
1235.403742,0.012851
1235.885945,0.013441
1236.368147,0.014202
1236.850350,0.015079
1237.332553,0.015996
1237.814756,0.017144
1238.296959,0.018676
1238.779162,0.020109
1239.261365,0.020785
1239.743567,0.021123
1240.225770,0.021915
1240.707973,0.023076
1241.190176,0.024382
1241.672379,0.025794
1242.154582,0.027240
1242.636785,0.028896
1243.118988,0.030755
1243.601190,0.032894
1244.083393,0.035278
1244.565596,0.037121
1245.047799,0.038511
1245.530002,0.040375
1246.012205,0.042603
1246.494408,0.044871
1246.976610,0.047256
1247.458813,0.049439
1247.941016,0.051486
1248.423219,0.053900
1248.905422,0.056483
1249.387625,0.058906
1249.869828,0.061204
1250.352031,0.063265
1250.834233,0.065029
1251.316436,0.066717
1251.798639,0.068210
1252.280842,0.069271
1252.763045,0.070256
1253.245248,0.070899
1253.727451,0.070428
1254.209653,0.069230
1254.691856,0.067940
1255.174059,0.066665
1255.656262,0.065524
1256.138465,0.064226
1256.620668,0.062520
1257.102871,0.060865
1257.585073,0.059937
1258.067276,0.060294
1258.549479,0.061237
1259.031682,0.062223
1259.513885,0.064227
1259.996088,0.067145
1260.478291,0.070277
1260.960494,0.071438
1261.442696,0.069690
1261.924899,0.069571
1262.407102,0.073746
1262.889305,0.083112
1263.371508,0.093244
1263.853711,0.091436
1264.335914,0.080082
1264.818116,0.071226
1265.300319,0.065032
1265.782522,0.060572
1266.264725,0.059433
1266.746928,0.060327
1267.229131,0.062123
1267.711334,0.064040
1268.193537,0.065811
1268.675739,0.067718
1269.157942,0.069768
1269.640145,0.072014
1270.122348,0.073831
1270.604551,0.074635
1271.086754,0.074825
1271.568957,0.074504
1272.051159,0.073674
1272.533362,0.072558
1273.015565,0.070748
1273.497768,0.068227
1273.979971,0.065520
1274.462174,0.062743
1274.944377,0.059867
1275.426580,0.056959
1275.908782,0.054243
1276.390985,0.051732
1276.873188,0.049197
1277.355391,0.046613
1277.837594,0.044088
1278.319797,0.041788
1278.802000,0.039888
1279.284202,0.038287
1279.766405,0.036755
1280.248608,0.035500
1280.730811,0.034559
1281.213014,0.033621
1281.695217,0.032762
1282.177420,0.031719
1282.659622,0.030147
1283.141825,0.028556
1283.624028,0.027292
1284.106231,0.026203
1284.588434,0.025281
1285.070637,0.024485
1285.552840,0.023710
1286.035043,0.022967
1286.517245,0.022308
1286.999448,0.021755
1287.481651,0.021124
1287.963854,0.020187
1288.446057,0.018999
1288.928260,0.017972
1289.410463,0.017348
1289.892665,0.016743
1290.374868,0.016038
1290.857071,0.015488
1291.339274,0.015112
1291.821477,0.014890
1292.303680,0.014684
1292.785883,0.014342
1293.268086,0.013683
1293.750288,0.012777
1294.232491,0.012087
1294.714694,0.011500
1295.196897,0.010884
1295.679100,0.010661
1296.161303,0.010715
1296.643506,0.010580
1297.125708,0.010342
1297.607911,0.010208
1298.090114,0.010078
1298.572317,0.009889
1299.054520,0.009573
1299.536723,0.009162
1300.018926,0.008948
1300.501129,0.008927
1300.983331,0.008961
1301.465534,0.009059
1301.947737,0.009096
1302.429940,0.008997
1302.912143,0.008751
1303.394346,0.008393
1303.876549,0.008120
1304.358751,0.007992
1304.840954,0.007907
1305.323157,0.007835
1305.805360,0.007779
1306.287563,0.007727
1306.769766,0.007739
1307.251969,0.007911
1307.734172,0.008152
1308.216374,0.008241
1308.698577,0.008222
1309.180780,0.008319
1309.662983,0.008447
1310.145186,0.008418
1310.627389,0.008353
1311.109592,0.008310
1311.591794,0.008218
1312.073997,0.008206
1312.556200,0.008240
1313.038403,0.008084
1313.520606,0.007861
1314.002809,0.007785
1314.485012,0.007747
1314.967214,0.007663
1315.449417,0.007486
1315.931620,0.007182
1316.413823,0.006992
1316.896026,0.006986
1317.378229,0.006862
1317.860432,0.006554
1318.342635,0.006354
1318.824837,0.006238
1319.307040,0.005977
1319.789243,0.005775
1320.271446,0.005711
1320.753649,0.005629
1321.235852,0.005533
1321.718055,0.005337
1322.200257,0.005093
1322.682460,0.005005
1323.164663,0.005032
1323.646866,0.005078
1324.129069,0.005274
1324.611272,0.005712
1325.093475,0.006354
1325.575678,0.006906
1326.057880,0.006479
1326.540083,0.005105
1327.022286,0.004226
1327.504489,0.004156
1327.986692,0.004121
1328.468895,0.004068
1328.951098,0.004162
1329.433300,0.004206
1329.915503,0.004057
1330.397706,0.003891
1330.879909,0.004060
1331.362112,0.004352
1331.844315,0.004328
1332.326518,0.004178
1332.808721,0.004079
1333.290923,0.003877
1333.773126,0.003622
1334.255329,0.003648
1334.737532,0.003910
1335.219735,0.003938
1335.701938,0.003841
1336.184141,0.003874
1336.666343,0.003867
1337.148546,0.003827
1337.630749,0.003825
1338.112952,0.003886
1338.595155,0.004018
1339.077358,0.004051
1339.559561,0.004002
1340.041764,0.004035
1340.523966,0.003947
1341.006169,0.003611
1341.488372,0.003323
1341.970575,0.003178
1342.452778,0.003080
1342.934981,0.002905
1343.417184,0.002710
1343.899386,0.002631
1344.381589,0.002468
1344.863792,0.002285
1345.345995,0.002280
1345.828198,0.002237
1346.310401,0.002056
1346.792604,0.001911
1347.274806,0.001855
1347.757009,0.001710
1348.239212,0.001556
1348.721415,0.001579
1349.203618,0.001529
1349.685821,0.001338
1350.168024,0.001232
1350.650227,0.001130
1351.132429,0.000968
1351.614632,0.000881
1352.096835,0.000815
1352.579038,0.000741
1353.061241,0.000752
1353.543444,0.000693
1354.025647,0.000589
1354.507849,0.000628
1354.990052,0.000644
1355.472255,0.000543
1355.954458,0.000440
1356.436661,0.000454
1356.918864,0.000558
1357.401067,0.000518
1357.883270,0.000438
1358.365472,0.000376
1358.847675,0.000148
1359.329878,0.000079
1359.812081,0.000184
1360.294284,0.000175
1360.776487,0.000364
1361.258690,0.000655
1361.740892,0.000616
1362.223095,0.000508
1362.705298,0.000615
1363.187501,0.000785
1363.669704,0.000624
1364.151907,0.000207
1364.634110,-0.000051
1365.116313,-0.000077
1365.598515,-0.000026
1366.080718,-0.000063
1366.562921,-0.000135
1367.045124,-0.000096
1367.527327,-0.000080
1368.009530,0.000018
1368.491733,0.000193
1368.973935,0.000164
1369.456138,0.000221
1369.938341,0.000286
1370.420544,0.000090
1370.902747,0.000051
1371.384950,0.000099
1371.867153,0.000118
1372.349355,0.000310
1372.831558,0.000463
1373.313761,0.000657
1373.795964,0.000802
1374.278167,0.000485
1374.760370,0.000142
1375.242573,0.000059
1375.724776,-0.000021
1376.206978,-0.000087
1376.689181,0.000061
1377.171384,0.000310
1377.653587,0.000429
1378.135790,0.000400
1378.617993,0.000296
1379.100196,0.000280
1379.582398,0.000296
1380.064601,0.000257
1380.546804,0.000385
1381.029007,0.000534
1381.511210,0.000485
1381.993413,0.000392
1382.475616,0.000317
1382.957819,0.000370
1383.440021,0.000571
1383.922224,0.000665
1384.404427,0.000657
1384.886630,0.000712
1385.368833,0.000825
1385.851036,0.001068
1386.333239,0.001404
1386.815441,0.001681
1387.297644,0.002013
1387.779847,0.002055
1388.262050,0.001597
1388.744253,0.001344
1389.226456,0.001366
1389.708659,0.001324
1390.190862,0.001234
1390.673064,0.001223
1391.155267,0.001405
1391.637470,0.001595
1392.119673,0.001467
1392.601876,0.001343
1393.084079,0.001571
1393.566282,0.001809
1394.048484,0.002179
1394.530687,0.002704
1395.012890,0.002500
1395.495093,0.002137
1395.977296,0.002131
1396.459499,0.001959
1396.941702,0.001764
1397.423905,0.001835
1397.906107,0.001926
1398.388310,0.001867
1398.870513,0.001947
1399.352716,0.002049
1399.834919,0.001696
1400.317122,0.001331
1400.799325,0.001270
1401.281527,0.001380
1401.763730,0.001479
1402.245933,0.001436
1402.728136,0.001364
1403.210339,0.001340
1403.692542,0.001400
1404.174745,0.001583
1404.656947,0.001831
1405.139150,0.001877
1405.621353,0.001464
1406.103556,0.001053
1406.585759,0.000945
1407.067962,0.000991
1407.550165,0.001108
1408.032368,0.001089
1408.514570,0.000995
1408.996773,0.001101
1409.478976,0.001143
1409.961179,0.001022
1410.443382,0.001020
1410.925585,0.001066
1411.407788,0.001098
1411.889990,0.001144
1412.372193,0.001035
1412.854396,0.000853
1413.336599,0.000919
1413.818802,0.001060
1414.301005,0.000978
1414.783208,0.000952
1415.265411,0.001062
1415.747613,0.001191
1416.229816,0.001373
1416.712019,0.001485
1417.194222,0.001723
1417.676425,0.001947
1418.158628,0.001791
1418.640831,0.001949
1419.123033,0.002712
1419.605236,0.002756
1420.087439,0.001723
1420.569642,0.001046
1421.051845,0.000893
1421.534048,0.000820
1422.016251,0.000799
1422.498454,0.000960
1422.980656,0.001112
1423.462859,0.001217
1423.945062,0.001328
1424.427265,0.001290
1424.909468,0.001062
1425.391671,0.000834
1425.873874,0.000782
1426.356076,0.000823
1426.838279,0.000838
1427.320482,0.000859
1427.802685,0.000881
1428.284888,0.000944
1428.767091,0.001034
1429.249294,0.001159
1429.731497,0.001359
1430.213699,0.001272
1430.695902,0.000954
1431.178105,0.000869
1431.660308,0.000919
1432.142511,0.000945
1432.624714,0.001005
1433.106917,0.001045
1433.589119,0.000969
1434.071322,0.000934
1434.553525,0.001074
1435.035728,0.001234
1435.517931,0.001439
1436.000134,0.001948
1436.482337,0.002821
1436.964539,0.002936
1437.446742,0.001805
1437.928945,0.001062
1438.411148,0.000841
1438.893351,0.000707
1439.375554,0.000688
1439.857757,0.000699
1440.339960,0.000579
1440.822162,0.000486
1441.304365,0.000531
1441.786568,0.000564
1442.268771,0.000529
1442.750974,0.000505
1443.233177,0.000427
1443.715380,0.000347
1444.197582,0.000318
1444.679785,0.000271
1445.161988,0.000380
1445.644191,0.000591
1446.126394,0.000657
1446.608597,0.000699
1447.090800,0.000835
1447.573003,0.001141
1448.055205,0.001428
1448.537408,0.001184
1449.019611,0.000720
1449.501814,0.000419
1449.984017,0.000247
1450.466220,0.000232
1450.948423,0.000266
1451.430625,0.000306
1451.912828,0.000445
1452.395031,0.000453
1452.877234,0.000315
1453.359437,0.000314
1453.841640,0.000353
1454.323843,0.000438
1454.806046,0.000824
1455.288248,0.001281
1455.770451,0.001568
1456.252654,0.002254
1456.734857,0.003377
1457.217060,0.002746
1457.699263,0.001544
1458.181466,0.001352
1458.663668,0.001235
1459.145871,0.000782
1459.628074,0.000443
1460.110277,0.000182
1460.592480,0.000068
1461.074683,0.000102
1461.556886,0.000118
1462.039089,0.000143
1462.521291,0.000146
1463.003494,0.000171
1463.485697,0.000345
1463.967900,0.000569
1464.450103,0.000838
1464.932306,0.001079
1465.414509,0.000747
1465.896711,0.000191
1466.378914,-0.000079
1466.861117,-0.000195
1467.343320,-0.000260
1467.825523,-0.000314
1468.307726,-0.000368
1468.789929,-0.000325
1469.272131,-0.000308
1469.754334,-0.000337
1470.236537,-0.000215
1470.718740,0.000039
1471.200943,0.000326
1471.683146,0.000825
1472.165349,0.001278
1472.647552,0.000900
1473.129754,0.000619
1473.611957,0.000784
1474.094160,0.000334
1474.576363,-0.000227
1475.058566,-0.000306
1475.540769,-0.000160
1476.022972,0.000191
1476.505174,0.000316
1476.987377,-0.000189
1477.469580,-0.000637
1477.951783,-0.000780
1478.433986,-0.000803
1478.916189,-0.000781
1479.398392,-0.000766
1479.880595,-0.000721
1480.362797,-0.000655
1480.845000,-0.000617
1481.327203,-0.000567
1481.809406,-0.000590
1482.291609,-0.000641
1482.773812,-0.000656
1483.256015,-0.000714
1483.738217,-0.000736
1484.220420,-0.000698
1484.702623,-0.000667
1485.184826,-0.000671
1485.667029,-0.000628
1486.149232,-0.000444
1486.631435,-0.000264
1487.113638,-0.000060
1487.595840,0.000088
1488.078043,-0.000124
1488.560246,-0.000288
1489.042449,0.000035
1489.524652,0.000534
1490.006855,0.000614
1490.489058,0.000418
1490.971260,0.000204
1491.453463,-0.000227
1491.935666,-0.000634
1492.417869,-0.000785
1492.900072,-0.000806
1493.382275,-0.000734
1493.864478,-0.000650
1494.346680,-0.000638
1494.828883,-0.000463
1495.311086,-0.000132
1495.793289,0.000347
1496.275492,0.000953
1496.757695,0.000627
1497.239898,-0.000128
1497.722101,-0.000327
1498.204303,-0.000067
1498.686506,0.000309
1499.168709,0.000272
1499.650912,-0.000220
1500.133115,-0.000499
1500.615318,-0.000489
1501.097521,-0.000463
1501.579723,-0.000439
1502.061926,-0.000413
1502.544129,-0.000444
1503.026332,-0.000432
1503.508535,-0.000326
1503.990738,-0.000146
1504.472941,0.000106
1504.955144,0.000528
1505.437346,0.001484
1505.919549,0.002240
1506.401752,0.002065
1506.883955,0.002438
1507.366158,0.002445
1507.848361,0.001331
1508.330564,0.000848
1508.812766,0.000671
1509.294969,0.000311
1509.777172,0.000236
1510.259375,0.000064
1510.741578,-0.000258
1511.223781,-0.000286
1511.705984,-0.000021
1512.188187,0.000417
1512.670389,0.000284
1513.152592,-0.000299
1513.634795,-0.000450
1514.116998,-0.000339
1514.599201,-0.000069
1515.081404,0.000276
1515.563607,0.000225
1516.045809,0.000230
1516.528012,0.000612
1517.010215,0.000857
1517.492418,0.000807
1517.974621,0.000398
1518.456824,-0.000071
1518.939027,-0.000165
1519.421230,0.000060
1519.903432,0.000682
1520.385635,0.001305
1520.867838,0.001497
1521.350041,0.001798
1521.832244,0.001372
1522.314447,0.000663
1522.796650,0.000509
1523.278852,0.000228
1523.761055,-0.000093
1524.243258,-0.000015
1524.725461,0.000270
1525.207664,0.000730
1525.689867,0.000888
1526.172070,0.000353
1526.654272,0.000041
1527.136475,0.000247
1527.618678,0.000264
1528.100881,0.000002
1528.583084,-0.000050
1529.065287,-0.000143
1529.547490,-0.000464
1530.029693,-0.000585
1530.511895,-0.000413
1530.994098,-0.000187
1531.476301,0.000051
1531.958504,0.000161
1532.440707,0.000161
1532.922910,0.000427
1533.405113,0.000834
1533.887315,0.000932
1534.369518,0.000502
1534.851721,-0.000087
1535.333924,-0.000219
1535.816127,-0.000099
1536.298330,-0.000096
1536.780533,0.000035
1537.262736,0.000237
1537.744938,0.000492
1538.227141,0.001059
1538.709344,0.002097
1539.191547,0.003040
1539.673750,0.002630
1540.155953,0.002293
1540.638156,0.002223
1541.120358,0.001587
1541.602561,0.001509
1542.084764,0.002259
1542.566967,0.002170
1543.049170,0.001593
1543.531373,0.001470
1544.013576,0.001443
1544.495779,0.001562
1544.977981,0.002205
1545.460184,0.002439
1545.942387,0.001851
1546.424590,0.001525
1546.906793,0.001585
1547.388996,0.001760
1547.871199,0.001994
1548.353401,0.002279
1548.835604,0.002637
1549.317807,0.003141
1549.800010,0.003779
1550.282213,0.004109
1550.764416,0.003948
1551.246619,0.003825
1551.728822,0.004060
1552.211024,0.004478
1552.693227,0.005007
1553.175430,0.005702
1553.657633,0.006533
1554.139836,0.007630
1554.622039,0.008266
1555.104242,0.008124
1555.586444,0.008334
1556.068647,0.008985
1556.550850,0.009789
1557.033053,0.011060
1557.515256,0.013060
1557.997459,0.014884
1558.479662,0.016166
1558.961864,0.016804
1559.444067,0.017078
1559.926270,0.018133
1560.408473,0.018910
1560.890676,0.018680
1561.372879,0.019045
1561.855082,0.020254
1562.337285,0.021744
1562.819487,0.023051
1563.301690,0.024513
1563.783893,0.026374
1564.266096,0.028548
1564.748299,0.030996
1565.230502,0.033038
1565.712705,0.034528
1566.194907,0.036552
1566.677110,0.039281
1567.159313,0.042002
1567.641516,0.044422
1568.123719,0.047040
1568.605922,0.050669
1569.088125,0.054928
1569.570328,0.059038
1570.052530,0.062341
1570.534733,0.065139
1571.016936,0.069432
1571.499139,0.074501
1571.981342,0.078070
1572.463545,0.081387
1572.945748,0.086784
1573.427950,0.093236
1573.910153,0.098581
1574.392356,0.103107
1574.874559,0.108627
1575.356762,0.116273
1575.838965,0.125008
1576.321168,0.132721
1576.803371,0.139313
1577.285573,0.146724
1577.767776,0.154859
1578.249979,0.162152
1578.732182,0.168480
1579.214385,0.176520
1579.696588,0.187480
1580.178791,0.198336
1580.660993,0.206307
1581.143196,0.214681
1581.625399,0.227605
1582.107602,0.240801
1582.589805,0.247830
1583.072008,0.252632
1583.554211,0.263345
1584.036413,0.279367
1584.518616,0.292573
1585.000819,0.299250
1585.483022,0.307118
1585.965225,0.324146
1586.447428,0.343826
1586.929631,0.352768
1587.411834,0.354257
1587.894036,0.363998
1588.376239,0.384717
1588.858442,0.402857
1589.340645,0.409484
1589.822848,0.417291
1590.305051,0.442598
1590.787254,0.471947
1591.269456,0.473664
1591.751659,0.464233
1592.233862,0.486090
1592.716065,0.519935
1593.198268,0.517453
1593.680471,0.506113
1594.162674,0.532966
1594.644877,0.573591
1595.127079,0.567512
1595.609282,0.538381
1596.091485,0.547864
1596.573688,0.579248
1597.055891,0.566871
1597.538094,0.537587
1598.020297,0.558890
1598.502499,0.607931
1598.984702,0.602265
1599.466905,0.558651
1599.949108,0.555481
1600.431311,0.581395
1600.913514,0.562769
1601.395717,0.530809
1601.877920,0.560907
1602.360122,0.605340
1602.842325,0.566439
1603.324528,0.509549
1603.806731,0.517920
1604.288934,0.547061
1604.771137,0.530203
1605.253340,0.528411
1605.735542,0.583201
1606.217745,0.571604
1606.699948,0.480337
1607.182151,0.453729
1607.664354,0.494854
1608.146557,0.545676
1608.628760,0.557433
1609.110963,0.495633
1609.593165,0.445281
1610.075368,0.439575
1610.557571,0.459307
1611.039774,0.502190
1611.521977,0.471594
1612.004180,0.382683
1612.486383,0.371355
1612.968585,0.427710
1613.450788,0.408951
1613.932991,0.340021
1614.415194,0.353198
1614.897397,0.381972
1615.379600,0.343553
1615.861803,0.316052
1616.344005,0.292570
1616.826208,0.249783
1617.308411,0.246976
1617.790614,0.273179
1618.272817,0.312660
1618.755020,0.364758
1619.237223,0.426632
1619.719426,0.476060
1620.201628,0.502445
1620.683831,0.550052
1621.166034,0.603217
1621.648237,0.616124
1622.130440,0.629394
1622.612643,0.678857
1623.094846,0.717904
1623.577048,0.724853
1624.059251,0.754474
1624.541454,0.766822
1625.023657,0.734415
1625.505860,0.750892
1625.988063,0.806579
1626.470266,0.779468
1626.952469,0.767783
1627.434671,0.831934
1627.916874,0.813316
1628.399077,0.780529
1628.881280,0.833553
1629.363483,0.819331
1629.845686,0.769733
1630.327889,0.802572
1630.810091,0.792786
1631.292294,0.736210
1631.774497,0.751602
1632.256700,0.733356
1632.738903,0.676237
1633.221106,0.687189
1633.703309,0.666794
1634.185512,0.609900
1634.667714,0.613805
1635.149917,0.587621
1635.632120,0.542853
1636.114323,0.554568
1636.596526,0.502515
1637.078729,0.461566
1637.560932,0.462559
1638.043134,0.423047
1638.525337,0.412655
1639.007540,0.420045
1639.489743,0.381183
1639.971946,0.375767
1640.454149,0.358739
1640.936352,0.310630
1641.418555,0.303267
1641.900757,0.275859
1642.382960,0.248205
1642.865163,0.245047
1643.347366,0.215127
1643.829569,0.202586
1644.311772,0.194295
1644.793975,0.169886
1645.276177,0.168689
1645.758380,0.159991
1646.240583,0.139698
1646.722786,0.123501
1647.204989,0.104065
1647.687192,0.097523
1648.169395,0.090476
1648.651597,0.081299
1649.133800,0.074408
1649.616003,0.064982
1650.098206,0.060317
1650.580409,0.054909
1651.062612,0.049609
1651.544815,0.046706
1652.027018,0.041585
1652.509220,0.038301
1652.991423,0.033847
1653.473626,0.028647
1653.955829,0.026879
1654.438032,0.025458
1654.920235,0.023663
1655.402438,0.021752
1655.884640,0.020409
1656.366843,0.019131
1656.849046,0.018162
1657.331249,0.017333
1657.813452,0.016499
1658.295655,0.015935
1658.777858,0.015232
1659.260061,0.014635
1659.742263,0.014113
1660.224466,0.013693
1660.706669,0.013322
1661.188872,0.013039
1661.671075,0.012899
1662.153278,0.012684
1662.635481,0.012562
1663.117683,0.012134
1663.599886,0.011478
1664.082089,0.011091
1664.564292,0.010943
1665.046495,0.010834
1665.528698,0.010697
1666.010901,0.010684
1666.493104,0.010719
1666.975306,0.010834
1667.457509,0.011067
1667.939712,0.011461
1668.421915,0.011937
1668.904118,0.012425
1669.386321,0.012905
1669.868524,0.012679
1670.350726,0.012273
1670.832929,0.012359
1671.315132,0.012641
1671.797335,0.012923
1672.279538,0.013145
1672.761741,0.013397
1673.243944,0.013847
1673.726146,0.014396
1674.208349,0.015039
1674.690552,0.015813
1675.172755,0.016854
1675.654958,0.017541
1676.137161,0.017265
1676.619364,0.017207
1677.101567,0.017671
1677.583769,0.018272
1678.065972,0.018955
1678.548175,0.019612
1679.030378,0.020285
1679.512581,0.021105
1679.994784,0.021981
1680.476987,0.022623
1680.959189,0.022901
1681.441392,0.023159
1681.923595,0.023646
1682.405798,0.024444
1682.888001,0.025557
1683.370204,0.026684
1683.852407,0.027202
1684.334610,0.027555
1684.816812,0.027720
1685.299015,0.026327
1685.781218,0.025072
1686.263421,0.024658
1686.745624,0.024443
1687.227827,0.024263
1687.710030,0.024055
1688.192232,0.023713
1688.674435,0.023289
1689.156638,0.022800
1689.638841,0.022282
1690.121044,0.021775
1690.603247,0.021235
1691.085450,0.020684
1691.567653,0.020040
1692.049855,0.019146
1692.532058,0.018077
1693.014261,0.017011
1693.496464,0.016050
1693.978667,0.015312
1694.460870,0.014938
1694.943073,0.015016
1695.425275,0.015944
1695.907478,0.017596
1696.389681,0.018575
1696.871884,0.020278
1697.354087,0.024837
1697.836290,0.032308
1698.318493,0.040685
1698.800696,0.048829
1699.282898,0.052559
1699.765101,0.044108
1700.247304,0.025746
1700.729507,0.016155
1701.211710,0.014350
1701.693913,0.013642
1702.176116,0.013184
1702.658318,0.012395
1703.140521,0.012395
1703.622724,0.013311
1704.104927,0.014596
1704.587130,0.016270
1705.069333,0.017761
1705.551536,0.019144
1706.033738,0.020998
1706.515941,0.022822
1706.998144,0.023838
1707.480347,0.024734
1707.962550,0.025914
1708.444753,0.027057
1708.926956,0.028104
1709.409159,0.029169
1709.891361,0.030540
1710.373564,0.032191
1710.855767,0.033656
1711.337970,0.034798
1711.820173,0.035381
1712.302376,0.035464
1712.784579,0.035582
1713.266781,0.035802
1713.748984,0.036159
1714.231187,0.036541
1714.713390,0.036754
1715.195593,0.036926
1715.677796,0.036728
1716.159999,0.036381
1716.642202,0.036413
1717.124404,0.036738
1717.606607,0.037059
1718.088810,0.036691
1718.571013,0.035926
1719.053216,0.035183
1719.535419,0.034547
1720.017622,0.034088
1720.499824,0.033738
1720.982027,0.033409
1721.464230,0.033060
1721.946433,0.032732
1722.428636,0.032625
1722.910839,0.032699
1723.393042,0.032737
1723.875245,0.032577
1724.357447,0.032226
1724.839650,0.031982
1725.321853,0.031920
1725.804056,0.031857
1726.286259,0.031829
1726.768462,0.031903
1727.250665,0.032049
1727.732867,0.032357
1728.215070,0.032853
1728.697273,0.033411
1729.179476,0.033934
1729.661679,0.034593
1730.143882,0.035393
1730.626085,0.035867
1731.108288,0.036260
1731.590490,0.036990
1732.072693,0.037917
1732.554896,0.038992
1733.037099,0.040647
1733.519302,0.042963
1734.001505,0.044393
1734.483708,0.045550
1734.965910,0.046826
1735.448113,0.047041
1735.930316,0.047587
1736.412519,0.048767
1736.894722,0.049900
1737.376925,0.051122
1737.859128,0.052418
1738.341330,0.053614
1738.823533,0.054764
1739.305736,0.056032
1739.787939,0.057377
1740.270142,0.058130
1740.752345,0.058367
1741.234548,0.058769
1741.716751,0.059301
1742.198953,0.059746
1742.681156,0.060223
1743.163359,0.060639
1743.645562,0.060737
1744.127765,0.060595
1744.609968,0.060304
1745.092171,0.059850
1745.574373,0.059515
1746.056576,0.059300
1746.538779,0.058934
1747.020982,0.058626
1747.503185,0.058284
1747.985388,0.057719
1748.467591,0.057431
1748.949794,0.057339
1749.431996,0.056899
1749.914199,0.056553
1750.396402,0.056714
1750.878605,0.057217
1751.360808,0.057731
1751.843011,0.057389
1752.325214,0.056633
1752.807416,0.056539
1753.289619,0.056825
1753.771822,0.056757
1754.254025,0.056630
1754.736228,0.056850
1755.218431,0.057125
1755.700634,0.057069
1756.182837,0.056879
1756.665039,0.056812
1757.147242,0.056375
1757.629445,0.055649
1758.111648,0.054996
1758.593851,0.054123
1759.076054,0.053315
1759.558257,0.052422
1760.040459,0.050767
1760.522662,0.048651
1761.004865,0.046478
1761.487068,0.044318
1761.969271,0.041873
1762.451474,0.039000
1762.933677,0.036479
1763.415880,0.034335
1763.898082,0.032182
1764.380285,0.030120
1764.862488,0.028066
1765.344691,0.025970
1765.826894,0.024046
1766.309097,0.022299
1766.791300,0.020709
1767.273502,0.019229
1767.755705,0.017921
1768.237908,0.016561
1768.720111,0.014718
1769.202314,0.012941
1769.684517,0.011636
1770.166720,0.010575
1770.648922,0.009692
1771.131125,0.009139
1771.613328,0.008563
1772.095531,0.007770
1772.577734,0.007173
1773.059937,0.006356
1773.542140,0.005054
1774.024343,0.003998
1774.506545,0.003355
1774.988748,0.002927
1775.470951,0.002771
1775.953154,0.002624
1776.435357,0.002021
1776.917560,0.001446
1777.399763,0.001229
1777.881965,0.001020
1778.364168,0.000766
1778.846371,0.000566
1779.328574,0.000365
1779.810777,0.000380
1780.292980,0.000627
1780.775183,0.000531
1781.257386,0.000155
1781.739588,-0.000008
1782.221791,-0.000246
1782.703994,-0.000542
1783.186197,-0.000508
1783.668400,-0.000296
1784.150603,0.000025
1784.632806,0.000408
1785.115008,0.000276
1785.597211,-0.000210
1786.079414,-0.000425
1786.561617,-0.000590
1787.043820,-0.000725
1787.526023,-0.000546
1788.008226,-0.000117
1788.490429,0.000379
1788.972631,0.000398
1789.454834,0.000116
1789.937037,0.000315
1790.419240,0.000658
1790.901443,0.000710
1791.383646,0.000533
1791.865849,0.000348
1792.348051,0.000766
1792.830254,0.001211
1793.312457,0.000413
1793.794660,-0.000189
1794.276863,0.000102
1794.759066,0.000122
1795.241269,-0.000202
1795.723471,-0.000070
1796.205674,0.000610
1796.687877,0.001327
1797.170080,0.000948
1797.652283,0.000003
1798.134486,0.000195
1798.616689,0.000769
1799.098892,0.000562
1799.581094,0.000270
1800.063297,0.000571
1800.545500,0.001423
1801.027703,0.001683
1801.509906,0.000510
1801.992109,-0.000086
1802.474312,0.000709
1802.956514,0.000790
1803.438717,0.000016
1803.920920,0.000037
1804.403123,0.001419
1804.885326,0.002533
1805.367529,0.001395
1805.849732,0.000049
1806.331935,0.000778
1806.814137,0.001548
1807.296340,0.000883
1807.778543,0.000340
1808.260746,0.001634
1808.742949,0.003346
1809.225152,0.002404
1809.707355,0.000372
1810.189557,0.000603
1810.671760,0.001917
1811.153963,0.001854
1811.636166,0.000964
1812.118369,0.001995
1812.600572,0.004502
1813.082775,0.003901
1813.564978,0.001083
1814.047180,0.000763
1814.529383,0.002569
1815.011586,0.003245
1815.493789,0.002048
1815.975992,0.002633
1816.458195,0.005896
1816.940398,0.005928
1817.422600,0.002548
1817.904803,0.001583
1818.387006,0.003510
1818.869209,0.004961
1819.351412,0.003881
1819.833615,0.004031
1820.315818,0.007692
1820.798021,0.007689
1821.280223,0.003405
1821.762426,0.001977
1822.244629,0.004167
1822.726832,0.006504
1823.209035,0.005585
1823.691238,0.005539
1824.173441,0.010024
1824.655643,0.010166
1825.137846,0.005049
1825.620049,0.003187
1826.102252,0.005167
1826.584455,0.007894
1827.066658,0.007409
1827.548861,0.007569
1828.031063,0.012241
1828.513266,0.011127
1828.995469,0.005084
1829.477672,0.003708
1829.959875,0.006541
1830.442078,0.010116
1830.924281,0.009122
1831.406484,0.009548
1831.888686,0.013979
1832.370889,0.010535
1832.853092,0.003857
1833.335295,0.003310
1833.817498,0.006932
1834.299701,0.011285
1834.781904,0.011155
1835.264106,0.012869
1835.746309,0.016222
1836.228512,0.010102
1836.710715,0.003886
1837.192918,0.004634
1837.675121,0.009246
1838.157324,0.013691
1838.639527,0.013687
1839.121729,0.016556
1839.603932,0.016852
1840.086135,0.008105
1840.568338,0.003768
1841.050541,0.005874
1841.532744,0.011368
1842.014947,0.015808
1842.497149,0.016998
1842.979352,0.020482
1843.461555,0.016613
1843.943758,0.007634
1844.425961,0.006255
1844.908164,0.008972
1845.390367,0.013904
1845.872570,0.017353
1846.354772,0.019575
1846.836975,0.019525
1847.319178,0.010505
1847.801381,0.003942
1848.283584,0.004972
1848.765787,0.009446
1849.247990,0.015766
1849.730192,0.019481
1850.212395,0.020976
1850.694598,0.015092
1851.176801,0.005445
1851.659004,0.003347
1852.141207,0.006159
1852.623410,0.011903
1853.105613,0.018289
1853.587815,0.021909
1854.070018,0.018731
1854.552221,0.008351
1855.034424,0.002906
1855.516627,0.004453
1855.998830,0.008395
1856.481033,0.014909
1856.963235,0.020817
1857.445438,0.020211
1857.927641,0.011078
1858.409844,0.003444
1858.892047,0.003277
1859.374250,0.005913
1859.856453,0.010885
1860.338655,0.017893
1860.820858,0.020051
1861.303061,0.012693
1861.785264,0.004093
1862.267467,0.002293
1862.749670,0.003915
1863.231873,0.007025
1863.714076,0.013295
1864.196278,0.017533
1864.678481,0.012527
1865.160684,0.004084
1865.642887,0.001362
1866.125090,0.002464
1866.607293,0.004225
1867.089496,0.008219
1867.571698,0.012542
1868.053901,0.010417
1868.536104,0.003680
1869.018307,0.000982
1869.500510,0.001570
1869.982713,0.001678
1870.464916,0.002541
1870.947119,0.005017
1871.429321,0.005178
1871.911524,0.002123
1872.393727,0.000616
1872.875930,0.001099
1873.358133,0.001834
1873.840336,0.003296
1874.322539,0.005877
1874.804741,0.009452
1875.286944,0.015175
1875.769147,0.020451
1876.251350,0.015897
1876.733553,0.005319
1877.215756,0.000763
1877.697959,0.000303
1878.180162,-0.000189
1878.662364,-0.000264
1879.144567,-0.000117
1879.626770,0.000451
1880.108973,0.001115
1880.591176,0.003024
1881.073379,0.005390
1881.555582,0.004354
1882.037784,0.001337
1882.519987,0.000887
1883.002190,0.002334
1883.484393,0.004278
1883.966596,0.009602
1884.448799,0.013932
1884.931002,0.009303
1885.413204,0.002715
1885.895407,0.002601
1886.377610,0.004731
1886.859813,0.008311
1887.342016,0.016987
1887.824219,0.020418
1888.306422,0.011169
1888.788625,0.003652
1889.270827,0.005187
1889.753030,0.008053
1890.235233,0.014341
1890.717436,0.024634
1891.199639,0.023117
1891.681842,0.009858
1892.164045,0.004297
1892.646247,0.006829
1893.128450,0.010482
1893.610653,0.021064
1894.092856,0.030228
1894.575059,0.021302
1895.057262,0.007846
1895.539465,0.006200
1896.021668,0.009236
1896.503870,0.016118
1896.986073,0.029185
1897.468276,0.030025
1897.950479,0.015043
1898.432682,0.006348
1898.914885,0.008003
1899.397088,0.012837
1899.879290,0.024453
1900.361493,0.033143
1900.843696,0.023331
1901.325899,0.009638
1901.808102,0.007290
1902.290305,0.010829
1902.772508,0.019658
1903.254711,0.031225
1903.736913,0.028614
1904.219116,0.014627
1904.701319,0.007862
1905.183522,0.009398
1905.665725,0.016288
1906.147928,0.027842
1906.630131,0.030077
1907.112333,0.018584
1907.594536,0.009340
1908.076739,0.008494
1908.558942,0.013795
1909.041145,0.024353
1909.523348,0.029045
1910.005551,0.020686
1910.487754,0.011021
1910.969956,0.008106
1911.452159,0.011879
1911.934362,0.021395
1912.416565,0.026448
1912.898768,0.020119
1913.380971,0.011559
1913.863174,0.007790
1914.345376,0.010286
1914.827579,0.018735
1915.309782,0.023415
1915.791985,0.018494
1916.274188,0.011467
1916.756391,0.007451
1917.238594,0.008915
1917.720796,0.016202
1918.202999,0.020079
1918.685202,0.015827
1919.167405,0.010589
1919.649608,0.007167
1920.131811,0.008649
1920.614014,0.015184
1921.096217,0.017266
1921.578419,0.013389
1922.060622,0.009700
1922.542825,0.006943
1923.025028,0.008718
1923.507231,0.014278
1923.989434,0.014231
1924.471637,0.010537
1924.953839,0.007932
1925.436042,0.005762
1925.918245,0.008099
1926.400448,0.012209
1926.882651,0.010738
1927.364854,0.007959
1927.847057,0.006303
1928.329260,0.005123
1928.811462,0.007934
1929.293665,0.009997
1929.775868,0.007729
1930.258071,0.006156
1930.740274,0.004844
1931.222477,0.004702
1931.704680,0.007432
1932.186882,0.007391
1932.669085,0.005393
1933.151288,0.004713
1933.633491,0.003661
1934.115694,0.004556
1934.597897,0.006077
1935.080100,0.004731
1935.562303,0.003816
1936.044505,0.003330
1936.526708,0.002922
1937.008911,0.004308
1937.491114,0.004220
1937.973317,0.003011
1938.455520,0.002840
1938.937723,0.002364
1939.419925,0.002852
1939.902128,0.003442
1940.384331,0.002542
1940.866534,0.002189
1941.348737,0.002002
1941.830940,0.002078
1942.313143,0.002863
1942.795346,0.002425
1943.277548,0.001722
1943.759751,0.001510
1944.241954,0.001291
1944.724157,0.001650
1945.206360,0.001545
1945.688563,0.001057
1946.170766,0.001034
1946.652968,0.000975
1947.135171,0.001141
1947.617374,0.001064
1948.099577,0.000694
1948.581780,0.000713
1949.063983,0.000690
1949.546186,0.000807
1950.028388,0.000827
1950.510591,0.000463
1950.992794,0.000386
1951.474997,0.000442
1951.957200,0.000515
1952.439403,0.000536
1952.921606,0.000406
1953.403809,0.000404
1953.886011,0.000402
1954.368214,0.000395
1954.850417,0.000308
1955.332620,0.000133
1955.814823,0.000126
1956.297026,0.000146
1956.779229,0.000144
1957.261431,0.000122
1957.743634,0.000123
1958.225837,0.000171
1958.708040,0.000153
1959.190243,0.000144
1959.672446,0.000105
1960.154649,0.000080
1960.636852,0.000146
1961.119054,0.000141
1961.601257,0.000048
1962.083460,0.000019
1962.565663,0.000083
1963.047866,0.000081
1963.530069,0.000004
1964.012272,-0.000004
1964.494474,-0.000020
1964.976677,-0.000036
1965.458880,0.000026
1965.941083,0.000086
1966.423286,0.000091
1966.905489,0.000083
1967.387692,0.000126
1967.869895,0.000117
1968.352097,-0.000016
1968.834300,-0.000107
1969.316503,-0.000104
1969.798706,-0.000060
1970.280909,-0.000047
1970.763112,-0.000111
1971.245315,-0.000109
1971.727517,-0.000027
1972.209720,-0.000043
1972.691923,-0.000167
1973.174126,-0.000185
1973.656329,-0.000086
1974.138532,-0.000067
1974.620735,-0.000078
1975.102938,-0.000048
1975.585140,-0.000048
1976.067343,-0.000092
1976.549546,-0.000125
1977.031749,-0.000108
1977.513952,-0.000100
1977.996155,-0.000092
1978.478358,-0.000072
1978.960560,-0.000068
1979.442763,-0.000061
1979.924966,-0.000074
1980.407169,-0.000096
1980.889372,-0.000085
1981.371575,-0.000101
1981.853778,-0.000194
1982.335980,-0.000222
1982.818183,-0.000137
1983.300386,-0.000103
1983.782589,-0.000135
1984.264792,-0.000142
1984.746995,-0.000103
1985.229198,-0.000080
1985.711401,-0.000078
1986.193603,-0.000005
1986.675806,0.000030
1987.158009,-0.000056
1987.640212,-0.000104
1988.122415,-0.000077
1988.604618,-0.000073
1989.086821,-0.000075
1989.569023,-0.000107
1990.051226,-0.000168
1990.533429,-0.000086
1991.015632,0.000022
1991.497835,-0.000004
1991.980038,-0.000007
1992.462241,-0.000015
1992.944444,-0.000079
1993.426646,-0.000090
1993.908849,-0.000069
1994.391052,-0.000082
1994.873255,-0.000136
1995.355458,-0.000146
1995.837661,-0.000133
1996.319864,-0.000177
1996.802066,-0.000170
1997.284269,-0.000109
1997.766472,-0.000097
1998.248675,-0.000077
1998.730878,-0.000027
1999.213081,-0.000038
1999.695284,-0.000086
2000.177487,-0.000080
2000.659689,-0.000083
2001.141892,-0.000111
2001.624095,-0.000061
2002.106298,-0.000021
2002.588501,-0.000087
2003.070704,-0.000077
2003.552907,0.000002
2004.035109,-0.000064
2004.517312,-0.000109
2004.999515,-0.000028
2005.481718,-0.000033
2005.963921,-0.000075
2006.446124,-0.000057
2006.928327,-0.000040
2007.410529,-0.000032
2007.892732,-0.000046
2008.374935,-0.000090
2008.857138,-0.000126
2009.339341,-0.000119
2009.821544,-0.000117
2010.303747,-0.000170
2010.785950,-0.000175
2011.268152,-0.000066
2011.750355,-0.000003
2012.232558,-0.000042
2012.714761,-0.000026
2013.196964,-0.000037
2013.679167,-0.000148
2014.161370,-0.000148
2014.643572,-0.000056
2015.125775,-0.000014
2015.607978,-0.000003
2016.090181,-0.000005
2016.572384,-0.000016
2017.054587,-0.000023
2017.536790,-0.000020
2018.018993,-0.000051
2018.501195,-0.000086
2018.983398,-0.000045
2019.465601,-0.000041
2019.947804,-0.000079
2020.430007,-0.000055
2020.912210,-0.000019
2021.394413,-0.000043
2021.876615,-0.000098
2022.358818,-0.000093
2022.841021,-0.000062
2023.323224,-0.000064
2023.805427,-0.000030
2024.287630,-0.000008
2024.769833,-0.000059
2025.252036,-0.000044
2025.734238,0.000023
2026.216441,-0.000040
2026.698644,-0.000115
2027.180847,-0.000066
2027.663050,-0.000089
2028.145253,-0.000134
2028.627456,-0.000082
2029.109658,-0.000132
2029.591861,-0.000207
2030.074064,-0.000121
2030.556267,-0.000036
2031.038470,-0.000065
2031.520673,-0.000095
2032.002876,-0.000080
2032.485079,-0.000105
2032.967281,-0.000100
2033.449484,-0.000044
2033.931687,-0.000072
2034.413890,-0.000097
2034.896093,-0.000066
2035.378296,-0.000077
2035.860499,-0.000116
2036.342701,-0.000106
2036.824904,-0.000036
2037.307107,-0.000011
2037.789310,-0.000069
2038.271513,-0.000099
2038.753716,-0.000080
2039.235919,-0.000064
2039.718121,-0.000017
2040.200324,0.000023
2040.682527,-0.000000
2041.164730,0.000029
2041.646933,0.000046
2042.129136,-0.000037
2042.611339,-0.000072
2043.093542,-0.000088
2043.575744,-0.000142
2044.057947,-0.000119
2044.540150,-0.000060
2045.022353,-0.000092
2045.504556,-0.000086
2045.986759,-0.000009
2046.468962,-0.000043
2046.951164,-0.000085
2047.433367,-0.000065
2047.915570,-0.000109
2048.397773,-0.000135
2048.879976,-0.000071
2049.362179,-0.000040
2049.844382,-0.000086
2050.326585,-0.000076
2050.808787,0.000001
2051.290990,0.000001
2051.773193,-0.000032
2052.255396,0.000005
2052.737599,0.000022
2053.219802,-0.000042
2053.702005,-0.000057
2054.184207,-0.000019
2054.666410,-0.000019
2055.148613,0.000014
2055.630816,0.000018
2056.113019,-0.000071
2056.595222,-0.000071
2057.077425,-0.000025
2057.559628,-0.000099
2058.041830,-0.000145
2058.524033,-0.000101
2059.006236,-0.000103
2059.488439,-0.000120
2059.970642,-0.000102
2060.452845,-0.000073
2060.935048,-0.000028
2061.417250,-0.000019
2061.899453,-0.000030
2062.381656,-0.000029
2062.863859,-0.000017
2063.346062,0.000032
2063.828265,0.000014
2064.310468,-0.000010
2064.792671,0.000077
2065.274873,0.000040
2065.757076,-0.000106
2066.239279,-0.000135
2066.721482,-0.000133
2067.203685,-0.000163
2067.685888,-0.000143
2068.168091,-0.000086
2068.650293,-0.000086
2069.132496,-0.000093
2069.614699,-0.000057
2070.096902,-0.000081
2070.579105,-0.000097
2071.061308,-0.000011
2071.543511,0.000025
2072.025713,-0.000026
2072.507916,-0.000014
2072.990119,0.000037
2073.472322,-0.000042
2073.954525,-0.000171
2074.436728,-0.000146
2074.918931,-0.000096
2075.401134,-0.000124
2075.883336,-0.000080
2076.365539,-0.000055
2076.847742,-0.000090
2077.329945,0.000008
2077.812148,0.000079
2078.294351,-0.000026
2078.776554,-0.000054
2079.258756,0.000031
2079.740959,-0.000011
2080.223162,-0.000089
2080.705365,0.000028
2081.187568,0.000139
2081.669771,0.000061
2082.151974,0.000017
2082.634177,0.000043
2083.116379,-0.000019
2083.598582,-0.000051
2084.080785,-0.000001
2084.562988,-0.000002
2085.045191,-0.000007
2085.527394,-0.000005
2086.009597,-0.000001
2086.491799,0.000081
2086.974002,0.000138
2087.456205,0.000108
2087.938408,0.000071
2088.420611,0.000056
2088.902814,0.000050
2089.385017,0.000037
2089.867220,0.000076
2090.349422,0.000135
2090.831625,0.000090
2091.313828,0.000017
2091.796031,0.000029
2092.278234,0.000016
2092.760437,-0.000050
2093.242640,-0.000011
2093.724842,0.000021
2094.207045,-0.000044
2094.689248,0.000024
2095.171451,0.000112
2095.653654,0.000033
2096.135857,-0.000021
2096.618060,-0.000016
2097.100262,-0.000055
2097.582465,-0.000052
2098.064668,0.000006
2098.546871,0.000020
2099.029074,0.000032
2099.511277,0.000055
2099.993480,0.000019
2100.475683,-0.000040
2100.957885,-0.000049
2101.440088,0.000012
2101.922291,0.000048
2102.404494,0.000051
2102.886697,0.000116
2103.368900,0.000138
2103.851103,0.000096
2104.333305,0.000095
2104.815508,0.000084
2105.297711,0.000052
2105.779914,0.000078
2106.262117,0.000139
2106.744320,0.000155
2107.226523,0.000209
2107.708726,0.000260
2108.190928,0.000113
2108.673131,0.000012
2109.155334,0.000121
2109.637537,0.000133
2110.119740,0.000032
2110.601943,0.000047
2111.084146,0.000160
2111.566348,0.000234
2112.048551,0.000232
2112.530754,0.000206
2113.012957,0.000143
2113.495160,0.000068
2113.977363,0.000035
2114.459566,0.000032
2114.941769,0.000089
2115.423971,0.000178
2115.906174,0.000207
2116.388377,0.000166
2116.870580,0.000119
2117.352783,0.000118
2117.834986,0.000142
2118.317189,0.000145
2118.799391,0.000140
2119.281594,0.000208
2119.763797,0.000313
2120.246000,0.000313
2120.728203,0.000248
2121.210406,0.000213
2121.692609,0.000209
2122.174812,0.000194
2122.657014,0.000186
2123.139217,0.000280
2123.621420,0.000391
2124.103623,0.000336
2124.585826,0.000167
2125.068029,0.000113
2125.550232,0.000161
2126.032434,0.000177
2126.514637,0.000229
2126.996840,0.000287
2127.479043,0.000325
2127.961246,0.000425
2128.443449,0.000416
2128.925652,0.000258
2129.407854,0.000192
2129.890057,0.000207
2130.372260,0.000169
2130.854463,0.000181
2131.336666,0.000277
2131.818869,0.000287
2132.301072,0.000205
2132.783275,0.000141
2133.265477,0.000095
2133.747680,0.000093
2134.229883,0.000153
2134.712086,0.000197
2135.194289,0.000229
2135.676492,0.000279
2136.158695,0.000237
2136.640897,0.000161
2137.123100,0.000212
2137.605303,0.000246
2138.087506,0.000180
2138.569709,0.000194
2139.051912,0.000287
2139.534115,0.000310
2140.016318,0.000284
2140.498520,0.000295
2140.980723,0.000320
2141.462926,0.000297
2141.945129,0.000258
2142.427332,0.000269
2142.909535,0.000242
2143.391738,0.000158
2143.873940,0.000186
2144.356143,0.000239
2144.838346,0.000200
2145.320549,0.000224
2145.802752,0.000279
2146.284955,0.000256
2146.767158,0.000239
2147.249361,0.000243
2147.731563,0.000226
2148.213766,0.000205
2148.695969,0.000182
2149.178172,0.000123
2149.660375,0.000069
2150.142578,0.000103
2150.624781,0.000216
2151.106983,0.000298
2151.589186,0.000281
2152.071389,0.000230
2152.553592,0.000175
2153.035795,0.000169
2153.517998,0.000230
2154.000201,0.000247
2154.482404,0.000293
2154.964606,0.000358
2155.446809,0.000290
2155.929012,0.000237
2156.411215,0.000282
2156.893418,0.000278
2157.375621,0.000208
2157.857824,0.000200
2158.340026,0.000275
2158.822229,0.000260
2159.304432,0.000149
2159.786635,0.000118
2160.268838,0.000139
2160.751041,0.000164
2161.233244,0.000230
2161.715446,0.000265
2162.197649,0.000211
2162.679852,0.000155
2163.162055,0.000172
2163.644258,0.000189
2164.126461,0.000173
2164.608664,0.000200
2165.090867,0.000262
2165.573069,0.000301
2166.055272,0.000314
2166.537475,0.000275
2167.019678,0.000203
2167.501881,0.000246
2167.984084,0.000288
2168.466287,0.000210
2168.948489,0.000262
2169.430692,0.000329
2169.912895,0.000199
2170.395098,0.000134
2170.877301,0.000218
2171.359504,0.000250
2171.841707,0.000206
2172.323910,0.000247
2172.806112,0.000307
2173.288315,0.000233
2173.770518,0.000180
2174.252721,0.000166
2174.734924,0.000078
2175.217127,0.000068
2175.699330,0.000247
2176.181532,0.000389
2176.663735,0.000295
2177.145938,0.000166
2177.628141,0.000108
2178.110344,0.000038
2178.592547,0.000083
2179.074750,0.000223
2179.556953,0.000308
2180.039155,0.000317
2180.521358,0.000212
2181.003561,0.000086
2181.485764,0.000072
2181.967967,0.000077
2182.450170,0.000073
2182.932373,0.000169
2183.414575,0.000297
2183.896778,0.000253
2184.378981,0.000095
2184.861184,0.000081
2185.343387,0.000152
2185.825590,0.000195
2186.307793,0.000335
2186.789995,0.000419
2187.272198,0.000310
2187.754401,0.000275
2188.236604,0.000358
2188.718807,0.000366
2189.201010,0.000335
2189.683213,0.000372
2190.165416,0.000405
2190.647618,0.000377
2191.129821,0.000375
2191.612024,0.000370
2192.094227,0.000318
2192.576430,0.000374
2193.058633,0.000548
2193.540836,0.000624
2194.023038,0.000582
2194.505241,0.000592
2194.987444,0.000600
2195.469647,0.000519
2195.951850,0.000522
2196.434053,0.000651
2196.916256,0.000696
2197.398459,0.000656
2197.880661,0.000662
2198.362864,0.000672
2198.845067,0.000677
2199.327270,0.000742
2199.809473,0.000776
2200.291676,0.000723
2200.773879,0.000706
2201.256081,0.000780
2201.738284,0.000854
2202.220487,0.000875
2202.702690,0.000876
2203.184893,0.000847
2203.667096,0.000754
2204.149299,0.000711
2204.631502,0.000744
2205.113704,0.000773
2205.595907,0.000889
2206.078110,0.000995
2206.560313,0.000921
2207.042516,0.000829
2207.524719,0.000798
2208.006922,0.000829
2208.489124,0.000949
2208.971327,0.001087
2209.453530,0.001188
2209.935733,0.001121
2210.417936,0.000944
2210.900139,0.000872
2211.382342,0.000881
2211.864545,0.000939
2212.346747,0.001024
2212.828950,0.001018
2213.311153,0.000952
2213.793356,0.000916
2214.275559,0.000916
2214.757762,0.000913
2215.239965,0.000890
2215.722167,0.000879
2216.204370,0.000891
2216.686573,0.000838
2217.168776,0.000703
2217.650979,0.000635
2218.133182,0.000660
2218.615385,0.000636
2219.097587,0.000565
2219.579790,0.000517
2220.061993,0.000428
2220.544196,0.000324
2221.026399,0.000308
2221.508602,0.000282
2221.990805,0.000202
2222.473008,0.000134
2222.955210,0.000093
2223.437413,0.000100
2223.919616,0.000103
2224.401819,0.000125
2224.884022,0.000164
2225.366225,0.000185
2225.848428,0.000304
2226.330630,0.000439
2226.812833,0.000480
2227.295036,0.000531
2227.777239,0.000623
2228.259442,0.000694
2228.741645,0.000740
2229.223848,0.000809
2229.706051,0.000883
2230.188253,0.000929
2230.670456,0.000946
2231.152659,0.000936
2231.634862,0.000945
2232.117065,0.001041
2232.599268,0.001217
2233.081471,0.001292
2233.563673,0.001258
2234.045876,0.001321
2234.528079,0.001387
2235.010282,0.001331
2235.492485,0.001321
2235.974688,0.001367
2236.456891,0.001323
2236.939094,0.001268
2237.421296,0.001289
2237.903499,0.001286
2238.385702,0.001243
2238.867905,0.001251
2239.350108,0.001246
2239.832311,0.001125
2240.314514,0.001066
2240.796716,0.001142
2241.278919,0.001116
2241.761122,0.001039
2242.243325,0.001038
2242.725528,0.000952
2243.207731,0.000817
2243.689934,0.000773
2244.172137,0.000732
2244.654339,0.000646
2245.136542,0.000625
2245.618745,0.000612
2246.100948,0.000507
2246.583151,0.000476
2247.065354,0.000500
2247.547557,0.000414
2248.029759,0.000363
2248.511962,0.000381
2248.994165,0.000348
2249.476368,0.000320
2249.958571,0.000318
2250.440774,0.000235
2250.922977,0.000104
2251.405179,0.000076
2251.887382,0.000094
2252.369585,0.000069
2252.851788,0.000043
2253.333991,-0.000027
2253.816194,-0.000100
2254.298397,-0.000102
2254.780600,-0.000102
2255.262802,-0.000154
2255.745005,-0.000206
2256.227208,-0.000122
2256.709411,-0.000023
2257.191614,-0.000084
2257.673817,-0.000148
2258.156020,-0.000101
2258.638222,-0.000039
2259.120425,-0.000061
2259.602628,-0.000133
2260.084831,-0.000146
2260.567034,-0.000119
2261.049237,-0.000129
2261.531440,-0.000185
2262.013643,-0.000222
2262.495845,-0.000163
2262.978048,-0.000088
2263.460251,-0.000142
2263.942454,-0.000200
2264.424657,-0.000143
2264.906860,-0.000147
2265.389063,-0.000179
2265.871265,-0.000106
2266.353468,-0.000058
2266.835671,-0.000094
2267.317874,-0.000123
2267.800077,-0.000115
2268.282280,-0.000107
2268.764483,-0.000099
2269.246686,-0.000082
2269.728888,-0.000062
2270.211091,-0.000036
2270.693294,-0.000013
2271.175497,0.000008
2271.657700,-0.000030
2272.139903,-0.000095
2272.622106,-0.000067
2273.104308,-0.000006
2273.586511,0.000059
2274.068714,0.000107
2274.550917,0.000073
2275.033120,0.000065
2275.515323,0.000089
2275.997526,0.000070
2276.479729,0.000073
2276.961931,0.000084
2277.444134,0.000091
2277.926337,0.000155
2278.408540,0.000163
2278.890743,0.000095
2279.372946,0.000088
2279.855149,0.000107
2280.337351,0.000125
2280.819554,0.000149
2281.301757,0.000127
2281.783960,0.000102
2282.266163,0.000122
2282.748366,0.000191
2283.230569,0.000232
2283.712771,0.000180
2284.194974,0.000146
2284.677177,0.000159
2285.159380,0.000144
2285.641583,0.000114
2286.123786,0.000114
2286.605989,0.000150
2287.088192,0.000117
2287.570394,0.000066
2288.052597,0.000127
2288.534800,0.000117
2289.017003,0.000037
2289.499206,0.000107
2289.981409,0.000146
2290.463612,0.000050
2290.945814,0.000017
2291.428017,-0.000022
2291.910220,-0.000109
2292.392423,-0.000095
2292.874626,-0.000085
2293.356829,-0.000135
2293.839032,-0.000136
2294.321235,-0.000126
2294.803437,-0.000102
2295.285640,-0.000110
2295.767843,-0.000227
2296.250046,-0.000228
2296.732249,-0.000035
2297.214452,0.000106
2297.696655,0.000155
2298.178857,0.000147
2298.661060,0.000085
2299.143263,0.000091
2299.625466,0.000060
2300.107669,-0.000130
2300.589872,-0.000223
2301.072075,-0.000141
2301.554278,-0.000111
2302.036480,-0.000165
2302.518683,-0.000253
2303.000886,-0.000372
2303.483089,-0.000346
2303.965292,-0.000197
2304.447495,-0.000230
2304.929698,-0.000357
2305.411900,-0.000319
2305.894103,-0.000245
2306.376306,-0.000276
2306.858509,-0.000378
2307.340712,-0.000403
2307.822915,-0.000171
2308.305118,-0.000022
2308.787320,-0.000185
2309.269523,-0.000346
2309.751726,-0.000118
2310.233929,0.000162
2310.716132,0.000026
2311.198335,-0.000192
2311.680538,-0.000010
2312.162741,0.000317
2312.644943,0.000273
2313.127146,-0.000087
2313.609349,-0.000139
2314.091552,0.000215
2314.573755,0.000359
2315.055958,0.000106
2315.538161,-0.000046
2316.020363,0.000231
2316.502566,0.000451
2316.984769,0.000137
2317.466972,-0.000222
2317.949175,0.000135
2318.431378,0.000545
2318.913581,0.000110
2319.395784,-0.000437
2319.877986,-0.000037
2320.360189,0.000445
2320.842392,0.000028
2321.324595,-0.000525
2321.806798,-0.000020
2322.289001,0.000622
2322.771204,0.000139
2323.253406,-0.000553
2323.735609,-0.000050
2324.217812,0.000579
2324.700015,0.000076
2325.182218,-0.000698
2325.664421,-0.000215
2326.146624,0.000434
2326.628827,-0.000205
2327.111029,-0.000902
2327.593232,-0.000099
2328.075435,0.000471
2328.557638,-0.000381
2329.039841,-0.001043
2329.522044,-0.000155
2330.004247,0.000284
2330.486449,-0.000659
2330.968652,-0.000899
2331.450855,0.000150
2331.933058,0.000135
2332.415261,-0.000898
2332.897464,-0.000648
2333.379667,0.000412
2333.861870,0.000061
2334.344072,-0.000902
2334.826275,-0.000153
2335.308478,0.000641
2335.790681,-0.000316
2336.272884,-0.000979
2336.755087,0.000202
2337.237290,0.000480
2337.719492,-0.000603
2338.201695,-0.000316
2338.683898,0.000726
2339.166101,0.000062
2339.648304,-0.000821
2340.130507,0.000260
2340.612710,0.000784
2341.094912,-0.000268
2341.577115,-0.000133
2342.059318,0.001021
2342.541521,0.000558
2343.023724,-0.000157
2343.505927,0.000850
2343.988130,0.001303
2344.470333,0.000631
2344.952535,0.001095
2345.434738,0.002023
2345.916941,0.001720
2346.399144,0.001582
2346.881347,0.002385
2347.363550,0.002658
2347.845753,0.002634
2348.327955,0.003164
2348.810158,0.003609
2349.292361,0.003597
2349.774564,0.003324
2350.256767,0.003104
2350.738970,0.003101
2351.221173,0.002644
2351.703376,0.002005
2352.185578,0.002204
2352.667781,0.002016
2353.149984,0.001172
2353.632187,0.001450
2354.114390,0.001516
2354.596593,0.000554
2355.078796,0.000839
2355.560998,0.001157
2356.043201,0.000334
2356.525404,0.000660
2357.007607,0.000916
2357.489810,0.000049
2357.972013,0.000480
2358.454216,0.000697
2358.936419,-0.000037
2359.418621,0.000730
2359.900824,0.000834
2360.383027,0.000007
2360.865230,0.000747
2361.347433,0.000690
2361.829636,0.000168
2362.311839,0.001004
2362.794041,0.000852
2363.276244,0.000724
2363.758447,0.001185
2364.240650,0.000820
2364.722853,0.001074
2365.205056,0.001073
2365.687259,0.000500
2366.169462,0.000865
2366.651664,0.000542
2367.133867,0.000423
2367.616070,0.000619
2368.098273,0.000135
2368.580476,0.000297
2369.062679,0.000214
2369.544882,-0.000047
2370.027084,0.000087
2370.509287,-0.000063
2370.991490,-0.000062
2371.473693,-0.000206
2371.955896,-0.000289
2372.438099,-0.000164
2372.920302,-0.000292
2373.402504,-0.000326
2373.884707,-0.000362
2374.366910,-0.000376
2374.849113,-0.000370
2375.331316,-0.000421
2375.813519,-0.000422
2376.295722,-0.000525
2376.777925,-0.000621
2377.260127,-0.000722
2377.742330,-0.000821
2378.224533,-0.000824
2378.706736,-0.000887
2379.188939,-0.000824
2379.671142,-0.000771
2380.153345,-0.000653
2380.635547,-0.000519
2381.117750,-0.000442
2381.599953,-0.000421
2382.082156,-0.000396
2382.564359,-0.000313
2383.046562,-0.000224
2383.528765,-0.000134
2384.010968,-0.000097
2384.493170,-0.000171
2384.975373,-0.000243
2385.457576,-0.000184
2385.939779,-0.000087
2386.421982,-0.000060
2386.904185,0.000020
2387.386388,0.000102
2387.868590,0.000040
2388.350793,-0.000117
2388.832996,-0.000237
2389.315199,-0.000172
2389.797402,-0.000045
2390.279605,-0.000039
2390.761808,-0.000038
2391.244011,-0.000034
2391.726213,-0.000127
2392.208416,-0.000220
2392.690619,-0.000249
2393.172822,-0.000253
2393.655025,-0.000226
2394.137228,-0.000159
2394.619431,-0.000119
2395.101633,-0.000166
2395.583836,-0.000216
2396.066039,-0.000197
2396.548242,-0.000169
2397.030445,-0.000162
2397.512648,-0.000135
2397.994851,-0.000147
2398.477053,-0.000214
2398.959256,-0.000184
2399.441459,-0.000116
2399.923662,-0.000150
2400.405865,-0.000231
2400.888068,-0.000249
2401.370271,-0.000190
2401.852474,-0.000171
2402.334676,-0.000206
2402.816879,-0.000202
2403.299082,-0.000114
2403.781285,-0.000036
2404.263488,-0.000072
2404.745691,-0.000091
2405.227894,-0.000100
2405.710096,-0.000197
2406.192299,-0.000244
2406.674502,-0.000216
2407.156705,-0.000220
2407.638908,-0.000245
2408.121111,-0.000227
2408.603314,-0.000200
2409.085517,-0.000252
2409.567719,-0.000314
2410.049922,-0.000251
2410.532125,-0.000180
2411.014328,-0.000268
2411.496531,-0.000383
2411.978734,-0.000394
2412.460937,-0.000348
2412.943139,-0.000296
2413.425342,-0.000274
2413.907545,-0.000283
2414.389748,-0.000262
2414.871951,-0.000228
2415.354154,-0.000273
2415.836357,-0.000341
2416.318560,-0.000341
2416.800762,-0.000335
2417.282965,-0.000333
2417.765168,-0.000289
2418.247371,-0.000256
2418.729574,-0.000312
2419.211777,-0.000376
2419.693980,-0.000336
2420.176182,-0.000298
2420.658385,-0.000309
2421.140588,-0.000328
2421.622791,-0.000376
2422.104994,-0.000336
2422.587197,-0.000217
2423.069400,-0.000193
2423.551603,-0.000250
2424.033805,-0.000308
2424.516008,-0.000299
2424.998211,-0.000256
2425.480414,-0.000296
2425.962617,-0.000354
2426.444820,-0.000368
2426.927023,-0.000382
2427.409225,-0.000377
2427.891428,-0.000289
2428.373631,-0.000196
2428.855834,-0.000254
2429.338037,-0.000344
2429.820240,-0.000319
2430.302443,-0.000273
2430.784645,-0.000291
2431.266848,-0.000367
2431.749051,-0.000397
2432.231254,-0.000339
2432.713457,-0.000315
2433.195660,-0.000366
2433.677863,-0.000384
2434.160066,-0.000322
2434.642268,-0.000298
2435.124471,-0.000308
2435.606674,-0.000262
2436.088877,-0.000220
2436.571080,-0.000172
2437.053283,-0.000143
2437.535486,-0.000204
2438.017688,-0.000222
2438.499891,-0.000238
2438.982094,-0.000299
2439.464297,-0.000238
2439.946500,-0.000201
2440.428703,-0.000317
2440.910906,-0.000389
2441.393109,-0.000327
2441.875311,-0.000206
2442.357514,-0.000160
2442.839717,-0.000172
2443.321920,-0.000179
2443.804123,-0.000253
2444.286326,-0.000296
2444.768529,-0.000179
2445.250731,-0.000121
2445.732934,-0.000218
2446.215137,-0.000231
2446.697340,-0.000209
2447.179543,-0.000275
2447.661746,-0.000287
2448.143949,-0.000269
2448.626152,-0.000254
2449.108354,-0.000209
2449.590557,-0.000197
2450.072760,-0.000201
2450.554963,-0.000221
2451.037166,-0.000232
2451.519369,-0.000176
2452.001572,-0.000158
2452.483774,-0.000232
2452.965977,-0.000227
2453.448180,-0.000140
2453.930383,-0.000139
2454.412586,-0.000175
2454.894789,-0.000176
2455.376992,-0.000170
2455.859195,-0.000145
2456.341397,-0.000127
2456.823600,-0.000133
2457.305803,-0.000154
2457.788006,-0.000120
2458.270209,-0.000026
2458.752412,-0.000027
2459.234615,-0.000089
2459.716817,-0.000058
2460.199020,-0.000005
2460.681223,0.000023
2461.163426,0.000077
2461.645629,0.000078
2462.127832,0.000003
2462.610035,-0.000056
2463.092237,-0.000042
2463.574440,-0.000004
2464.056643,-0.000019
2464.538846,-0.000021
2465.021049,0.000015
2465.503252,0.000071
2465.985455,0.000122
2466.467658,0.000087
2466.949860,0.000028
2467.432063,0.000005
2467.914266,-0.000005
2468.396469,-0.000013
2468.878672,-0.000027
2469.360875,-0.000030
2469.843078,-0.000016
2470.325280,0.000052
2470.807483,0.000110
2471.289686,0.000077
2471.771889,0.000065
2472.254092,0.000137
2472.736295,0.000198
2473.218498,0.000190
2473.700701,0.000190
2474.182903,0.000234
2474.665106,0.000248
2475.147309,0.000213
2475.629512,0.000201
2476.111715,0.000244
2476.593918,0.000231
2477.076121,0.000199
2477.558323,0.000242
2478.040526,0.000233
2478.522729,0.000166
2479.004932,0.000126
2479.487135,0.000134
2479.969338,0.000205
2480.451541,0.000243
2480.933744,0.000240
2481.415946,0.000270
2481.898149,0.000255
2482.380352,0.000209
2482.862555,0.000274
2483.344758,0.000342
2483.826961,0.000284
2484.309164,0.000275
2484.791366,0.000340
2485.273569,0.000281
2485.755772,0.000147
2486.237975,0.000062
2486.720178,0.000014
2487.202381,0.000025
2487.684584,0.000107
2488.166786,0.000183
2488.648989,0.000150
2489.131192,0.000025
2489.613395,-0.000034
2490.095598,0.000059
2490.577801,0.000210
2491.060004,0.000270
2491.542207,0.000286
2492.024409,0.000355
2492.506612,0.000436
2492.988815,0.000587
2493.471018,0.000735
2493.953221,0.000602
2494.435424,0.000291
2494.917627,0.000099
2495.399829,0.000050
2495.882032,0.000024
2496.364235,0.000005
2496.846438,0.000077
2497.328641,0.000189
2497.810844,0.000215
2498.293047,0.000213
2498.775250,0.000238
2499.257452,0.000242
2499.739655,0.000265
2500.221858,0.000259
2500.704061,0.000190
2501.186264,0.000222
2501.668467,0.000276
2502.150670,0.000237
2502.632872,0.000229
2503.115075,0.000264
2503.597278,0.000333
2504.079481,0.000374
2504.561684,0.000284
2505.043887,0.000241
2505.526090,0.000326
2506.008293,0.000410
2506.490495,0.000450
2506.972698,0.000420
2507.454901,0.000398
2507.937104,0.000429
2508.419307,0.000428
2508.901510,0.000440
2509.383713,0.000430
2509.865915,0.000370
2510.348118,0.000368
2510.830321,0.000372
2511.312524,0.000368
2511.794727,0.000359
2512.276930,0.000262
2512.759133,0.000141
2513.241336,0.000113
2513.723538,0.000148
2514.205741,0.000132
2514.687944,0.000131
2515.170147,0.000159
2515.652350,0.000070
2516.134553,0.000037
2516.616756,0.000147
2517.098958,0.000177
2517.581161,0.000147
2518.063364,0.000172
2518.545567,0.000186
2519.027770,0.000169
2519.509973,0.000185
2519.992176,0.000175
2520.474378,0.000088
2520.956581,0.000045
2521.438784,0.000049
2521.920987,0.000022
2522.403190,-0.000037
2522.885393,-0.000081
2523.367596,-0.000069
2523.849799,-0.000064
2524.332001,-0.000054
2524.814204,-0.000044
2525.296407,-0.000126
2525.778610,-0.000161
2526.260813,-0.000093
2526.743016,-0.000063
2527.225219,-0.000065
2527.707421,-0.000084
2528.189624,-0.000157
2528.671827,-0.000218
2529.154030,-0.000183
2529.636233,-0.000102
2530.118436,-0.000057
2530.600639,-0.000063
2531.082842,-0.000124
2531.565044,-0.000170
2532.047247,-0.000166
2532.529450,-0.000150
2533.011653,-0.000144
2533.493856,-0.000192
2533.976059,-0.000213
2534.458262,-0.000161
2534.940464,-0.000170
2535.422667,-0.000175
2535.904870,-0.000129
2536.387073,-0.000128
2536.869276,-0.000145
2537.351479,-0.000155
2537.833682,-0.000157
2538.315885,-0.000137
2538.798087,-0.000145
2539.280290,-0.000171
2539.762493,-0.000180
2540.244696,-0.000206
2540.726899,-0.000212
2541.209102,-0.000165
2541.691305,-0.000177
2542.173507,-0.000260
2542.655710,-0.000291
2543.137913,-0.000244
2543.620116,-0.000212
2544.102319,-0.000218
2544.584522,-0.000198
2545.066725,-0.000174
2545.548928,-0.000156
2546.031130,-0.000158
2546.513333,-0.000207
2546.995536,-0.000188
2547.477739,-0.000140
2547.959942,-0.000191
2548.442145,-0.000238
2548.924348,-0.000230
2549.406550,-0.000209
2549.888753,-0.000207
2550.370956,-0.000272
2550.853159,-0.000317
2551.335362,-0.000294
2551.817565,-0.000256
2552.299768,-0.000159
2552.781970,-0.000078
2553.264173,-0.000092
2553.746376,-0.000086
2554.228579,-0.000103
2554.710782,-0.000168
2555.192985,-0.000142
2555.675188,-0.000123
2556.157391,-0.000167
2556.639593,-0.000106
2557.121796,-0.000049
2557.603999,-0.000144
2558.086202,-0.000223
2558.568405,-0.000219
2559.050608,-0.000210
2559.532811,-0.000225
2560.015013,-0.000251
2560.497216,-0.000244
2560.979419,-0.000261
2561.461622,-0.000301
2561.943825,-0.000265
2562.426028,-0.000195
2562.908231,-0.000167
2563.390434,-0.000150
2563.872636,-0.000151
2564.354839,-0.000203
2564.837042,-0.000206
2565.319245,-0.000140
2565.801448,-0.000145
2566.283651,-0.000212
2566.765854,-0.000229
2567.248056,-0.000187
2567.730259,-0.000197
2568.212462,-0.000259
2568.694665,-0.000259
2569.176868,-0.000227
2569.659071,-0.000216
2570.141274,-0.000196
2570.623477,-0.000170
2571.105679,-0.000147
2571.587882,-0.000135
2572.070085,-0.000163
2572.552288,-0.000153
2573.034491,-0.000084
2573.516694,-0.000154
2573.998897,-0.000263
2574.481099,-0.000182
2574.963302,-0.000091
2575.445505,-0.000135
2575.927708,-0.000162
2576.409911,-0.000125
2576.892114,-0.000111
2577.374317,-0.000095
2577.856520,-0.000069
2578.338722,-0.000079
2578.820925,-0.000081
2579.303128,-0.000063
2579.785331,-0.000086
2580.267534,-0.000172
2580.749737,-0.000207
2581.231940,-0.000163
2581.714142,-0.000176
2582.196345,-0.000169
2582.678548,-0.000070
2583.160751,-0.000025
2583.642954,-0.000074
2584.125157,-0.000135
2584.607360,-0.000139
2585.089562,-0.000097
2585.571765,-0.000059
2586.053968,-0.000069
2586.536171,-0.000147
2587.018374,-0.000214
2587.500577,-0.000225
2587.982780,-0.000188
2588.464983,-0.000139
2588.947185,-0.000154
2589.429388,-0.000126
2589.911591,0.000005
2590.393794,0.000078
2590.875997,0.000050
2591.358200,-0.000027
2591.840403,-0.000088
2592.322605,-0.000117
2592.804808,-0.000170
2593.287011,-0.000184
2593.769214,-0.000174
2594.251417,-0.000183
2594.733620,-0.000140
2595.215823,-0.000067
2595.698026,-0.000014
2596.180228,-0.000014
2596.662431,-0.000083
2597.144634,-0.000128
2597.626837,-0.000097
2598.109040,-0.000086
2598.591243,-0.000151
2599.073446,-0.000173
2599.555648,-0.000135
2600.037851,-0.000117
2600.520054,-0.000045
2601.002257,0.000020
2601.484460,-0.000021
2601.966663,-0.000014
2602.448866,0.000029
2602.931069,-0.000035
2603.413271,-0.000081
2603.895474,-0.000030
2604.377677,-0.000018
2604.859880,-0.000052
2605.342083,-0.000066
2605.824286,-0.000106
2606.306489,-0.000114
2606.788691,-0.000079
2607.270894,-0.000112
2607.753097,-0.000076
2608.235300,0.000040
2608.717503,0.000075
2609.199706,0.000063
2609.681909,0.000030
2610.164111,0.000035
2610.646314,0.000064
2611.128517,0.000038
2611.610720,0.000102
2612.092923,0.000168
2612.575126,0.000059
2613.057329,0.000003
2613.539532,0.000119
2614.021734,0.000200
2614.503937,0.000186
2614.986140,0.000199
2615.468343,0.000252
2615.950546,0.000291
2616.432749,0.000320
2616.914952,0.000299
2617.397154,0.000299
2617.879357,0.000427
2618.361560,0.000497
2618.843763,0.000464
2619.325966,0.000479
2619.808169,0.000474
2620.290372,0.000435
2620.772575,0.000402
2621.254777,0.000337
2621.736980,0.000335
2622.219183,0.000408
2622.701386,0.000427
2623.183589,0.000413
2623.665792,0.000515
2624.147995,0.000664
2624.630197,0.000707
2625.112400,0.000687
2625.594603,0.000646
2626.076806,0.000620
2626.559009,0.000688
2627.041212,0.000745
2627.523415,0.000665
2628.005618,0.000585
2628.487820,0.000618
2628.970023,0.000649
2629.452226,0.000635
2629.934429,0.000639
2630.416632,0.000664
2630.898835,0.000664
2631.381038,0.000629
2631.863240,0.000629
2632.345443,0.000689
2632.827646,0.000740
2633.309849,0.000690
2633.792052,0.000582
2634.274255,0.000536
2634.756458,0.000565
2635.238661,0.000673
2635.720863,0.000735
2636.203066,0.000676
2636.685269,0.000730
2637.167472,0.000861
2637.649675,0.000826
2638.131878,0.000741
2638.614081,0.000747
2639.096283,0.000750
2639.578486,0.000707
2640.060689,0.000659
2640.542892,0.000608
2641.025095,0.000561
2641.507298,0.000552
2641.989501,0.000532
2642.471703,0.000444
2642.953906,0.000374
2643.436109,0.000351
2643.918312,0.000273
2644.400515,0.000144
2644.882718,0.000054
2645.364921,0.000032
2645.847124,0.000057
2646.329326,0.000106
2646.811529,0.000132
2647.293732,0.000126
2647.775935,0.000141
2648.258138,0.000144
2648.740341,0.000144
2649.222544,0.000139
2649.704746,0.000004
2650.186949,-0.000086
2650.669152,0.000022
2651.151355,0.000085
2651.633558,0.000056
2652.115761,0.000050
2652.597964,0.000057
2653.080167,0.000048
2653.562369,0.000008
2654.044572,0.000037
2654.526775,0.000119
2655.008978,0.000071
2655.491181,-0.000006
2655.973384,-0.000014
2656.455587,-0.000083
2656.937789,-0.000155
2657.419992,-0.000148
2657.902195,-0.000122
2658.384398,-0.000084
2658.866601,-0.000029
2659.348804,0.000063
2659.831007,0.000099
2660.313210,0.000010
2660.795412,0.000005
2661.277615,0.000058
2661.759818,-0.000010
2662.242021,-0.000072
2662.724224,-0.000099
2663.206427,-0.000137
2663.688630,-0.000039
2664.170832,0.000062
2664.653035,-0.000024
2665.135238,-0.000088
2665.617441,-0.000080
2666.099644,-0.000090
2666.581847,0.000005
2667.064050,0.000034
2667.546253,-0.000110
2668.028455,-0.000078
2668.510658,0.000063
2668.992861,0.000022
2669.475064,-0.000016
2669.957267,0.000073
2670.439470,0.000107
2670.921673,0.000055
2671.403875,0.000029
2671.886078,0.000053
2672.368281,0.000047
2672.850484,0.000022
2673.332687,-0.000007
2673.814890,-0.000068
2674.297093,-0.000078
2674.779295,-0.000065
2675.261498,-0.000073
2675.743701,-0.000055
2676.225904,-0.000045
2676.708107,-0.000008
2677.190310,0.000007
2677.672513,-0.000043
2678.154716,-0.000063
2678.636918,-0.000094
2679.119121,-0.000076
2679.601324,0.000032
2680.083527,0.000074
2680.565730,0.000019
2681.047933,-0.000103
2681.530136,-0.000162
2682.012338,-0.000055
2682.494541,0.000004
2682.976744,-0.000046
2683.458947,-0.000037
2683.941150,0.000028
2684.423353,0.000069
2684.905556,0.000090
2685.387759,0.000112
2685.869961,0.000084
2686.352164,0.000059
2686.834367,0.000087
2687.316570,0.000051
2687.798773,0.000004
2688.280976,-0.000023
2688.763179,-0.000075
2689.245381,-0.000050
2689.727584,-0.000083
2690.209787,-0.000150
2690.691990,-0.000011
2691.174193,0.000075
2691.656396,-0.000057
2692.138599,-0.000108
2692.620802,0.000035
2693.103004,0.000120
2693.585207,0.000017
2694.067410,-0.000040
2694.549613,0.000004
2695.031816,-0.000022
2695.514019,-0.000078
2695.996222,-0.000102
2696.478424,-0.000130
2696.960627,-0.000100
2697.442830,0.000013
2697.925033,0.000056
2698.407236,-0.000002
2698.889439,-0.000021
2699.371642,0.000013
2699.853844,0.000046
2700.336047,0.000033
2700.818250,-0.000036
2701.300453,-0.000060
2701.782656,-0.000052
2702.264859,-0.000067
2702.747062,0.000023
2703.229265,0.000167
2703.711467,0.000160
2704.193670,0.000102
2704.675873,0.000108
2705.158076,0.000075
2705.640279,0.000017
2706.122482,-0.000011
2706.604685,-0.000005
2707.086887,0.000015
2707.569090,-0.000008
2708.051293,-0.000028
2708.533496,-0.000005
2709.015699,0.000045
2709.497902,0.000073
2709.980105,0.000007
2710.462308,0.000025
2710.944510,0.000148
2711.426713,0.000122
2711.908916,0.000032
2712.391119,-0.000011
2712.873322,-0.000053
2713.355525,-0.000021
2713.837728,-0.000017
2714.319930,-0.000053
2714.802133,0.000005
2715.284336,0.000028
2715.766539,-0.000019
2716.248742,-0.000039
2716.730945,-0.000062
2717.213148,-0.000078
2717.695351,-0.000015
2718.177553,0.000058
2718.659756,-0.000033
2719.141959,-0.000103
2719.624162,0.000052
2720.106365,0.000150
2720.588568,0.000120
2721.070771,0.000166
2721.552973,0.000209
2722.035176,0.000150
2722.517379,0.000097
2722.999582,0.000081
2723.481785,0.000010
2723.963988,-0.000065
2724.446191,-0.000046
2724.928394,0.000062
2725.410596,0.000127
2725.892799,0.000070
2726.375002,0.000062
2726.857205,0.000106
2727.339408,0.000085
2727.821611,0.000062
2728.303814,0.000022
2728.786016,-0.000031
2729.268219,0.000002
2729.750422,0.000070
2730.232625,0.000077
2730.714828,0.000038
2731.197031,-0.000054
2731.679234,-0.000112
2732.161436,0.000034
2732.643639,0.000244
2733.125842,0.000282
2733.608045,0.000198
2734.090248,0.000122
2734.572451,0.000090
2735.054654,0.000071
2735.536857,0.000063
2736.019059,0.000083
2736.501262,0.000081
2736.983465,0.000119
2737.465668,0.000191
2737.947871,0.000125
2738.430074,0.000092
2738.912277,0.000165
2739.394479,0.000147
2739.876682,0.000112
2740.358885,0.000074
2740.841088,0.000009
2741.323291,-0.000006
2741.805494,0.000058
2742.287697,0.000166
2742.769900,0.000155
2743.252102,0.000155
2743.734305,0.000204
2744.216508,0.000107
2744.698711,0.000070
2745.180914,0.000140
2745.663117,0.000124
2746.145320,0.000062
2746.627522,0.000026
2747.109725,0.000020
2747.591928,0.000005
2748.074131,0.000036
2748.556334,0.000121
2749.038537,0.000121
2749.520740,0.000105
2750.002943,0.000121
2750.485145,0.000033
2750.967348,-0.000039
2751.449551,0.000042
2751.931754,0.000123
2752.413957,0.000085
2752.896160,0.000028
2753.378363,0.000082
2753.860565,0.000167
2754.342768,0.000158
2754.824971,0.000088
2755.307174,0.000078
2755.789377,0.000144
2756.271580,0.000154
2756.753783,0.000176
2757.235986,0.000252
2757.718188,0.000224
2758.200391,0.000135
2758.682594,0.000035
2759.164797,-0.000047
2759.647000,-0.000000
2760.129203,0.000070
2760.611406,0.000103
2761.093608,0.000180
2761.575811,0.000199
2762.058014,0.000146
2762.540217,0.000181
2763.022420,0.000193
2763.504623,0.000107
2763.986826,0.000070
2764.469028,0.000073
2764.951231,0.000073
2765.433434,0.000049
2765.915637,0.000026
2766.397840,0.000057
2766.880043,0.000049
2767.362246,0.000076
2767.844449,0.000186
2768.326651,0.000181
2768.808854,0.000117
2769.291057,0.000107
2769.773260,0.000097
2770.255463,0.000089
2770.737666,0.000056
2771.219869,0.000056
2771.702071,0.000166
2772.184274,0.000230
2772.666477,0.000130
2773.148680,0.000059
2773.630883,0.000148
2774.113086,0.000212
2774.595289,0.000192
2775.077492,0.000187
2775.559694,0.000163
2776.041897,0.000138
2776.524100,0.000139
2777.006303,0.000167
2777.488506,0.000197
2777.970709,0.000131
2778.452912,0.000065
2778.935114,0.000064
2779.417317,0.000011
2779.899520,0.000011
2780.381723,0.000055
2780.863926,-0.000042
2781.346129,-0.000089
2781.828332,0.000038
2782.310535,0.000073
2782.792737,-0.000025
2783.274940,-0.000031
2783.757143,0.000015
2784.239346,-0.000046
2784.721549,-0.000046
2785.203752,0.000040
2785.685955,0.000008
2786.168157,0.000031
2786.650360,0.000149
2787.132563,0.000132
2787.614766,0.000088
2788.096969,0.000133
2788.579172,0.000174
2789.061375,0.000153
2789.543577,0.000194
2790.025780,0.000292
2790.507983,0.000174
2790.990186,0.000016
2791.472389,0.000123
2791.954592,0.000245
2792.436795,0.000260
2792.918998,0.000240
2793.401200,0.000177
2793.883403,0.000163
2794.365606,0.000139
2794.847809,0.000118
2795.330012,0.000204
2795.812215,0.000228
2796.294418,0.000181
2796.776620,0.000175
2797.258823,0.000160
2797.741026,0.000166
2798.223229,0.000174
2798.705432,0.000162
2799.187635,0.000211
2799.669838,0.000243
2800.152041,0.000161
2800.634243,0.000071
2801.116446,0.000054
2801.598649,0.000074
2802.080852,0.000105
2802.563055,0.000051
2803.045258,-0.000066
2803.527461,-0.000037
2804.009663,0.000042
2804.491866,0.000006
2804.974069,0.000040
2805.456272,0.000123
2805.938475,0.000100
2806.420678,0.000126
2806.902881,0.000162
2807.385084,0.000079
2807.867286,0.000017
2808.349489,0.000031
2808.831692,0.000121
2809.313895,0.000196
2809.796098,0.000115
2810.278301,0.000034
2810.760504,0.000047
2811.242706,0.000066
2811.724909,0.000089
2812.207112,0.000091
2812.689315,0.000075
2813.171518,0.000076
2813.653721,0.000095
2814.135924,0.000153
2814.618127,0.000157
2815.100329,0.000080
2815.582532,0.000091
2816.064735,0.000122
2816.546938,0.000082
2817.029141,0.000121
2817.511344,0.000168
2817.993547,0.000136
2818.475749,0.000100
2818.957952,0.000038
2819.440155,0.000085
2819.922358,0.000219
2820.404561,0.000185
2820.886764,0.000105
2821.368967,0.000102
2821.851169,0.000086
2822.333372,0.000075
2822.815575,0.000121
2823.297778,0.000213
2823.779981,0.000264
2824.262184,0.000251
2824.744387,0.000208
2825.226590,0.000168
2825.708792,0.000141
2826.190995,0.000110
2826.673198,0.000166
2827.155401,0.000216
2827.637604,0.000142
2828.119807,0.000146
2828.602010,0.000248
2829.084212,0.000301
2829.566415,0.000311
2830.048618,0.000294
2830.530821,0.000270
2831.013024,0.000305
2831.495227,0.000397
2831.977430,0.000388
2832.459633,0.000310
2832.941835,0.000335
2833.424038,0.000293
2833.906241,0.000194
2834.388444,0.000256
2834.870647,0.000359
2835.352850,0.000456
2835.835053,0.000569
2836.317255,0.000547
2836.799458,0.000456
2837.281661,0.000536
2837.763864,0.000667
2838.246067,0.000588
2838.728270,0.000538
2839.210473,0.000634
2839.692676,0.000675
2840.174878,0.000693
2840.657081,0.000701
2841.139284,0.000691
2841.621487,0.000705
2842.103690,0.000763
2842.585893,0.000819
2843.068096,0.000841
2843.550298,0.000947
2844.032501,0.000974
2844.514704,0.000837
2844.996907,0.000839
2845.479110,0.001037
2845.961313,0.001242
2846.443516,0.001323
2846.925719,0.001330
2847.407921,0.001382
2847.890124,0.001430
2848.372327,0.001452
2848.854530,0.001507
2849.336733,0.001516
2849.818936,0.001565
2850.301139,0.001767
2850.783341,0.001754
2851.265544,0.001669
2851.747747,0.001916
2852.229950,0.002095
2852.712153,0.002143
2853.194356,0.002238
2853.676559,0.002239
2854.158761,0.002275
2854.640964,0.002386
2855.123167,0.002632
2855.605370,0.002952
2856.087573,0.003063
2856.569776,0.003247
2857.051979,0.003450
2857.534182,0.003368
2858.016384,0.003509
2858.498587,0.003913
2858.980790,0.004083
2859.462993,0.004257
2859.945196,0.004546
2860.427399,0.004736
2860.909602,0.005017
2861.391804,0.005329
2861.874007,0.005578
2862.356210,0.005754
2862.838413,0.005993
2863.320616,0.006444
2863.802819,0.006645
2864.285022,0.006896
2864.767225,0.007262
2865.249427,0.007457
2865.731630,0.008032
2866.213833,0.008626
2866.696036,0.009201
2867.178239,0.009644
2867.660442,0.009712
2868.142645,0.010135
2868.624847,0.010536
2869.107050,0.011029
2869.589253,0.011549
2870.071456,0.011809
2870.553659,0.012668
2871.035862,0.013453
2871.518065,0.013767
2872.000268,0.013938
2872.482470,0.014191
2872.964673,0.015034
2873.446876,0.016108
2873.929079,0.016966
2874.411282,0.017174
2874.893485,0.017419
2875.375688,0.018488
2875.857890,0.019536
2876.340093,0.020050
2876.822296,0.020133
2877.304499,0.020512
2877.786702,0.021569
2878.268905,0.022729
2878.751108,0.023297
2879.233311,0.023209
2879.715513,0.023745
2880.197716,0.025158
2880.679919,0.026160
2881.162122,0.026155
2881.644325,0.026041
2882.126528,0.027049
2882.608731,0.028619
2883.090933,0.029169
2883.573136,0.028631
2884.055339,0.028876
2884.537542,0.030553
2885.019745,0.031784
2885.501948,0.031442
2885.984151,0.030733
2886.466353,0.031373
2886.948556,0.032966
2887.430759,0.033413
2887.912962,0.032425
2888.395165,0.032209
2888.877368,0.033629
2889.359571,0.034445
2889.841774,0.033466
2890.323976,0.032831
2890.806179,0.034065
2891.288382,0.035277
2891.770585,0.034399
2892.252788,0.032913
2892.734991,0.033206
2893.217194,0.034414
2893.699396,0.034243
2894.181599,0.032856
2894.663802,0.032233
2895.146005,0.032812
2895.628208,0.032575
2896.110411,0.031272
2896.592614,0.030975
2897.074817,0.030965
2897.557019,0.029571
2898.039222,0.028273
2898.521425,0.028771
2899.003628,0.029107
2899.485831,0.027244
2899.968034,0.025599
2900.450237,0.026315
2900.932439,0.026832
2901.414642,0.024733
2901.896845,0.023398
2902.379048,0.024412
2902.861251,0.023719
2903.343454,0.022056
2903.825657,0.021472
2904.307860,0.020226
2904.790062,0.018666
2905.272265,0.016791
2905.754468,0.014126
2906.236671,0.011985
2906.718874,0.011049
2907.201077,0.011764
2907.683280,0.013933
2908.165482,0.016902
2908.647685,0.020449
2909.129888,0.023593
2909.612091,0.026085
2910.094294,0.029273
2910.576497,0.032661
2911.058700,0.034587
2911.540902,0.036851
2912.023105,0.040345
2912.505308,0.041994
2912.987511,0.043216
2913.469714,0.046465
2913.951917,0.047834
2914.434120,0.048044
2914.916323,0.050932
2915.398525,0.052021
2915.880728,0.051538
2916.362931,0.054140
2916.845134,0.054340
2917.327337,0.053201
2917.809540,0.055271
2918.291743,0.054256
2918.773945,0.053310
2919.256148,0.054468
2919.738351,0.052424
2920.220554,0.052160
2920.702757,0.051958
2921.184960,0.049560
2921.667163,0.049007
2922.149366,0.047222
2922.631568,0.045366
2923.113771,0.044115
2923.595974,0.041750
2924.078177,0.040218
2924.560380,0.038157
2925.042583,0.035897
2925.524786,0.033987
2926.006988,0.031675
2926.489191,0.029646
2926.971394,0.027363
2927.453597,0.025201
2927.935800,0.023128
2928.418003,0.020911
2928.900206,0.018890
2929.382409,0.016850
2929.864611,0.015193
2930.346814,0.013638
2930.829017,0.011845
2931.311220,0.010181
2931.793423,0.008834
2932.275626,0.007608
2932.757829,0.006330
2933.240031,0.005254
2933.722234,0.004349
2934.204437,0.003498
2934.686640,0.002758
2935.168843,0.002177
2935.651046,0.001659
2936.133249,0.001223
2936.615452,0.000979
2937.097654,0.000724
2937.579857,0.000582
2938.062060,0.000536
2938.544263,0.000381
2939.026466,0.000307
2939.508669,0.000331
2939.990872,0.000377
2940.473074,0.000375
2940.955277,0.000324
2941.437480,0.000327
2941.919683,0.000268
2942.401886,0.000174
2942.884089,0.000286
2943.366292,0.000413
2943.848494,0.000338
2944.330697,0.000267
2944.812900,0.000241
2945.295103,0.000253
2945.777306,0.000359
2946.259509,0.000417
2946.741712,0.000379
2947.223915,0.000253
2947.706117,0.000188
2948.188320,0.000374
2948.670523,0.000540
2949.152726,0.000512
2949.634929,0.000484
2950.117132,0.000529
2950.599335,0.000662
2951.081537,0.000739
2951.563740,0.000684
2952.045943,0.000698
2952.528146,0.000709
2953.010349,0.000675
2953.492552,0.000769
2953.974755,0.000921
2954.456958,0.000957
2954.939160,0.000922
2955.421363,0.000961
2955.903566,0.001022
2956.385769,0.001061
2956.867972,0.001068
2957.350175,0.000964
2957.832378,0.000922
2958.314580,0.001028
2958.796783,0.001100
2959.278986,0.001128
2959.761189,0.001169
2960.243392,0.001230
2960.725595,0.001324
2961.207798,0.001356
2961.690001,0.001330
2962.172203,0.001341
2962.654406,0.001304
2963.136609,0.001220
2963.618812,0.001272
2964.101015,0.001388
2964.583218,0.001418
2965.065421,0.001505
2965.547623,0.001573
2966.029826,0.001514
2966.512029,0.001580
2966.994232,0.001670
2967.476435,0.001588
2967.958638,0.001520
2968.440841,0.001521
2968.923044,0.001516
2969.405246,0.001563
2969.887449,0.001607
2970.369652,0.001520
2970.851855,0.001477
2971.334058,0.001510
2971.816261,0.001412
2972.298464,0.001358
2972.780666,0.001418
2973.262869,0.001388
2973.745072,0.001324
2974.227275,0.001356
2974.709478,0.001517
2975.191681,0.001636
2975.673884,0.001592
2976.156086,0.001617
2976.638289,0.001654
2977.120492,0.001573
2977.602695,0.001558
2978.084898,0.001456
2978.567101,0.001268
2979.049304,0.001271
2979.531507,0.001355
2980.013709,0.001382
2980.495912,0.001341
2980.978115,0.001292
2981.460318,0.001225
2981.942521,0.001106
2982.424724,0.001052
2982.906927,0.000954
2983.389129,0.000878
2983.871332,0.000989
2984.353535,0.001017
2984.835738,0.000912
2985.317941,0.000809
2985.800144,0.000756
2986.282347,0.000767
2986.764550,0.000699
2987.246752,0.000643
2987.728955,0.000701
2988.211158,0.000645
2988.693361,0.000509
2989.175564,0.000441
2989.657767,0.000385
2990.139970,0.000393
2990.622172,0.000423
2991.104375,0.000364
2991.586578,0.000316
2992.068781,0.000355
2992.550984,0.000413
2993.033187,0.000379
2993.515390,0.000306
2993.997593,0.000349
2994.479795,0.000375
2994.961998,0.000230
2995.444201,0.000079
2995.926404,0.000077
2996.408607,0.000119
2996.890810,0.000093
2997.373013,0.000068
2997.855215,0.000160
2998.337418,0.000316
2998.819621,0.000293
2999.301824,0.000130
2999.784027,0.000063
3000.266230,0.000045
3000.748433,0.000030
3001.230635,0.000090
3001.712838,0.000162
3002.195041,0.000136
3002.677244,0.000014
3003.159447,0.000005
3003.641650,0.000163
3004.123853,0.000238
3004.606056,0.000202
3005.088258,0.000129
3005.570461,0.000004
3006.052664,-0.000042
3006.534867,0.000014
3007.017070,0.000088
3007.499273,0.000157
3007.981476,0.000208
3008.463678,0.000241
3008.945881,0.000163
3009.428084,0.000070
3009.910287,0.000090
3010.392490,0.000096
3010.874693,0.000112
3011.356896,0.000129
3011.839099,0.000023
3012.321301,-0.000047
3012.803504,0.000065
3013.285707,0.000158
3013.767910,0.000080
3014.250113,-0.000008
3014.732316,-0.000005
3015.214519,-0.000011
3015.696721,-0.000034
3016.178924,0.000000
3016.661127,0.000004
3017.143330,-0.000015
3017.625533,0.000054
3018.107736,0.000034
3018.589939,-0.000130
3019.072142,-0.000229
3019.554344,-0.000165
3020.036547,0.000063
3020.518750,0.000242
3021.000953,0.000197
3021.483156,0.000062
3021.965359,-0.000054
3022.447562,0.000004
3022.929764,0.000216
3023.411967,0.000183
3023.894170,0.000038
3024.376373,0.000128
3024.858576,0.000158
3025.340779,0.000090
3025.822982,0.000213
3026.305185,0.000268
3026.787387,0.000069
3027.269590,-0.000029
3027.751793,0.000083
3028.233996,0.000142
3028.716199,0.000130
3029.198402,0.000146
3029.680605,0.000136
3030.162807,0.000107
3030.645010,0.000112
3031.127213,0.000098
3031.609416,0.000118
3032.091619,0.000199
3032.573822,0.000169
3033.056025,0.000102
3033.538227,0.000105
3034.020430,0.000028
3034.502633,-0.000084
3034.984836,-0.000068
3035.467039,0.000050
3035.949242,0.000105
3036.431445,0.000083
3036.913648,0.000089
3037.395850,0.000072
3037.878053,-0.000015
3038.360256,-0.000079
3038.842459,0.000009
3039.324662,0.000111
3039.806865,0.000022
3040.289068,-0.000071
3040.771270,-0.000031
3041.253473,0.000022
3041.735676,0.000074
3042.217879,0.000086
3042.700082,-0.000044
3043.182285,-0.000125
3043.664488,-0.000066
3044.146691,-0.000065
3044.628893,-0.000035
3045.111096,0.000064
3045.593299,0.000071
3046.075502,0.000026
3046.557705,-0.000060
3047.039908,-0.000084
3047.522111,0.000019
3048.004313,0.000039
3048.486516,-0.000009
3048.968719,-0.000005
3049.450922,-0.000028
3049.933125,-0.000105
3050.415328,-0.000118
3050.897531,-0.000055
3051.379734,-0.000064
3051.861936,-0.000063
3052.344139,-0.000021
3052.826342,-0.000073
3053.308545,-0.000130
3053.790748,-0.000103
3054.272951,0.000033
3054.755154,0.000132
3055.237356,0.000057
3055.719559,-0.000006
3056.201762,-0.000009
3056.683965,-0.000001
3057.166168,-0.000052
3057.648371,-0.000108
3058.130574,0.000031
3058.612777,0.000110
3059.094979,-0.000020
3059.577182,-0.000057
3060.059385,0.000018
3060.541588,0.000025
3061.023791,0.000047
3061.505994,0.000142
3061.988197,0.000116
3062.470399,0.000060
3062.952602,0.000142
3063.434805,0.000155
3063.917008,0.000080
3064.399211,0.000011
3064.881414,-0.000103
3065.363617,-0.000188
3065.845819,-0.000149
3066.328022,-0.000067
3066.810225,-0.000032
3067.292428,0.000004
3067.774631,-0.000004
3068.256834,-0.000043
3068.739037,-0.000020
3069.221240,-0.000040
3069.703442,-0.000131
3070.185645,-0.000198
3070.667848,-0.000161
3071.150051,-0.000029
3071.632254,0.000051
3072.114457,0.000014
3072.596660,-0.000045
3073.078862,-0.000027
3073.561065,0.000028
3074.043268,0.000046
3074.525471,0.000058
3075.007674,0.000102
3075.489877,0.000112
3075.972080,0.000052
3076.454283,0.000044
3076.936485,0.000029
3077.418688,-0.000035
3077.900891,0.000003
3078.383094,-0.000008
3078.865297,-0.000148
3079.347500,-0.000129
3079.829703,0.000084
3080.311905,0.000149
3080.794108,0.000036
3081.276311,0.000002
3081.758514,0.000025
3082.240717,0.000038
3082.722920,0.000058
3083.205123,0.000004
3083.687326,-0.000093
3084.169528,-0.000086
3084.651731,-0.000032
3085.133934,-0.000123
3085.616137,-0.000198
3086.098340,-0.000120
3086.580543,-0.000071
3087.062746,-0.000049
3087.544948,-0.000068
3088.027151,-0.000106
3088.509354,-0.000060
3088.991557,-0.000055
3089.473760,-0.000068
3089.955963,-0.000086
3090.438166,-0.000110
3090.920368,0.000022
3091.402571,0.000106
3091.884774,0.000013
3092.366977,-0.000063
3092.849180,-0.000055
3093.331383,0.000025
3093.813586,0.000012
3094.295789,-0.000004
3094.777991,0.000153
3095.260194,0.000202
3095.742397,0.000146
3096.224600,0.000171
3096.706803,0.000200
3097.189006,0.000229
3097.671209,0.000231
3098.153411,0.000191
3098.635614,0.000221
3099.117817,0.000327
3099.600020,0.000353
3100.082223,0.000304
3100.564426,0.000339
3101.046629,0.000457
3101.528832,0.000588
3102.011034,0.000549
3102.493237,0.000400
3102.975440,0.000430
3103.457643,0.000447
3103.939846,0.000412
3104.422049,0.000498
3104.904252,0.000502
3105.386454,0.000510
3105.868657,0.000665
3106.350860,0.000755
3106.833063,0.000771
3107.315266,0.000752
3107.797469,0.000647
3108.279672,0.000592
3108.761875,0.000721
3109.244077,0.000878
3109.726280,0.000763
3110.208483,0.000551
3110.690686,0.000565
3111.172889,0.000628
3111.655092,0.000665
3112.137295,0.000760
3112.619497,0.000728
3113.101700,0.000599
3113.583903,0.000617
3114.066106,0.000686
3114.548309,0.000678
3115.030512,0.000742
3115.512715,0.000740
3115.994918,0.000618
3116.477120,0.000713
3116.959323,0.000818
3117.441526,0.000740
3117.923729,0.000717
3118.405932,0.000689
3118.888135,0.000643
3119.370338,0.000669
3119.852540,0.000698
3120.334743,0.000763
3120.816946,0.000769
3121.299149,0.000628
3121.781352,0.000538
3122.263555,0.000537
3122.745758,0.000559
3123.227960,0.000563
3123.710163,0.000485
3124.192366,0.000510
3124.674569,0.000615
3125.156772,0.000584
3125.638975,0.000596
3126.121178,0.000647
3126.603381,0.000547
3127.085583,0.000458
3127.567786,0.000494
3128.049989,0.000465
3128.532192,0.000369
3129.014395,0.000418
3129.496598,0.000489
3129.978801,0.000429
3130.461003,0.000317
3130.943206,0.000224
3131.425409,0.000201
3131.907612,0.000188
3132.389815,0.000160
3132.872018,0.000135
3133.354221,0.000058
3133.836424,-0.000009
3134.318626,-0.000026
3134.800829,0.000014
3135.283032,0.000085
3135.765235,0.000016
3136.247438,-0.000130
3136.729641,-0.000165
3137.211844,-0.000204
3137.694046,-0.000276
3138.176249,-0.000220
3138.658452,-0.000112
3139.140655,-0.000119
3139.622858,-0.000243
3140.105061,-0.000327
3140.587264,-0.000283
3141.069467,-0.000191
3141.551669,-0.000081
3142.033872,-0.000110
3142.516075,-0.000215
3142.998278,-0.000084
3143.480481,0.000014
3143.962684,-0.000136
3144.444887,-0.000216
3144.927089,-0.000190
3145.409292,-0.000135
3145.891495,-0.000044
3146.373698,-0.000070
3146.855901,-0.000203
3147.338104,-0.000335
3147.820307,-0.000340
3148.302510,-0.000205
3148.784712,-0.000194
3149.266915,-0.000251
3149.749118,-0.000298
3150.231321,-0.000445
3150.713524,-0.000450
3151.195727,-0.000288
3151.677930,-0.000265
3152.160132,-0.000358
3152.642335,-0.000345
3153.124538,-0.000271
3153.606741,-0.000278
3154.088944,-0.000205
3154.571147,-0.000081
3155.053350,-0.000123
3155.535552,-0.000197
3156.017755,-0.000120
3156.499958,-0.000066
3156.982161,-0.000184
3157.464364,-0.000165
3157.946567,-0.000008
3158.428770,0.000007
3158.910973,0.000028
3159.393175,0.000060
3159.875378,-0.000001
3160.357581,-0.000068
3160.839784,-0.000052
3161.321987,0.000002
3161.804190,-0.000054
3162.286393,-0.000151
3162.768595,-0.000222
3163.250798,-0.000245
3163.733001,-0.000172
3164.215204,-0.000082
3164.697407,0.000057
3165.179610,0.000138
3165.661813,0.000052
3166.144016,-0.000032
3166.626218,-0.000064
3167.108421,-0.000031
3167.590624,0.000133
3168.072827,0.000204
3168.555030,-0.000045
3169.037233,-0.000290
3169.519436,-0.000276
3170.001638,-0.000215
3170.483841,-0.000185
3170.966044,-0.000165
3171.448247,-0.000125
3171.930450,-0.000028
3172.412653,-0.000009
3172.894856,-0.000103
3173.377059,-0.000141
3173.859261,-0.000049
3174.341464,-0.000004
3174.823667,-0.000113
3175.305870,-0.000092
3175.788073,0.000165
3176.270276,0.000186
3176.752479,0.000013
3177.234681,0.000073
3177.716884,0.000113
3178.199087,0.000067
3178.681290,0.000041
3179.163493,-0.000069
3179.645696,-0.000053
3180.127899,0.000019
3180.610102,0.000046
3181.092304,0.000139
3181.574507,0.000092
3182.056710,-0.000009
3182.538913,0.000053
3183.021116,0.000067
3183.503319,-0.000021
3183.985522,-0.000075
3184.467724,-0.000101
3184.949927,-0.000015
3185.432130,0.000117
3185.914333,0.000113
3186.396536,-0.000007
3186.878739,-0.000203
3187.360942,-0.000253
3187.843144,-0.000098
3188.325347,0.000007
3188.807550,0.000061
3189.289753,0.000149
3189.771956,0.000255
3190.254159,0.000263
3190.736362,0.000175
3191.218565,0.000140
3191.700767,0.000169
3192.182970,0.000207
3192.665173,0.000132
3193.147376,0.000008
3193.629579,0.000022
3194.111782,0.000144
3194.593985,0.000140
3195.076187,0.000014
3195.558390,0.000205
3196.040593,0.000460
3196.522796,0.000257
3197.004999,0.000027
3197.487202,0.000125
3197.969405,0.000320
3198.451608,0.000382
3198.933810,0.000300
3199.416013,0.000201
3199.898216,0.000100
3200.380419,-0.000047
3200.862622,-0.000163
3201.344825,-0.000018
3201.827028,0.000255
3202.309230,0.000246
3202.791433,0.000124
3203.273636,0.000088
3203.755839,0.000079
3204.238042,0.000215
3204.720245,0.000356
3205.202448,0.000343
3205.684651,0.000281
3206.166853,0.000204
3206.649056,0.000163
3207.131259,0.000176
3207.613462,0.000248
3208.095665,0.000328
3208.577868,0.000225
3209.060071,0.000181
3209.542273,0.000412
3210.024476,0.000454
3210.506679,0.000225
3210.988882,0.000180
3211.471085,0.000266
3211.953288,0.000234
3212.435491,0.000151
3212.917693,0.000054
3213.399896,0.000031
3213.882099,0.000186
3214.364302,0.000204
3214.846505,0.000053
3215.328708,0.000126
3215.810911,0.000191
3216.293114,0.000011
3216.775316,-0.000054
3217.257519,0.000109
3217.739722,0.000233
3218.221925,0.000190
3218.704128,0.000128
3219.186331,0.000127
3219.668534,0.000129
3220.150736,0.000079
3220.632939,0.000018
3221.115142,0.000133
3221.597345,0.000335
3222.079548,0.000418
3222.561751,0.000368
3223.043954,0.000288
3223.526157,0.000332
3224.008359,0.000363
3224.490562,0.000188
3224.972765,0.000061
3225.454968,0.000141
3225.937171,0.000094
3226.419374,-0.000017
3226.901577,0.000135
3227.383779,0.000327
3227.865982,0.000358
3228.348185,0.000168
3228.830388,-0.000093
3229.312591,-0.000058
3229.794794,0.000194
3230.276997,0.000357
3230.759200,0.000287
3231.241402,0.000262
3231.723605,0.000378
3232.205808,0.000278
3232.688011,0.000100
3233.170214,0.000101
3233.652417,0.000257
3234.134620,0.000414
3234.616822,0.000488
3235.099025,0.000563
3235.581228,0.000490
3236.063431,0.000364
3236.545634,0.000393
3237.027837,0.000425
3237.510040,0.000392
3237.992243,0.000409
3238.474445,0.000504
3238.956648,0.000440
3239.438851,0.000379
3239.921054,0.000551
3240.403257,0.000626
3240.885460,0.000575
3241.367663,0.000497
3241.849865,0.000497
3242.332068,0.000605
3242.814271,0.000602
3243.296474,0.000627
3243.778677,0.000608
3244.260880,0.000548
3244.743083,0.000616
3245.225285,0.000487
3245.707488,0.000333
3246.189691,0.000380
3246.671894,0.000376
3247.154097,0.000355
3247.636300,0.000437
3248.118503,0.000562
3248.600706,0.000552
3249.082908,0.000457
3249.565111,0.000416
3250.047314,0.000417
3250.529517,0.000424
3251.011720,0.000352
3251.493923,0.000338
3251.976126,0.000334
3252.458328,0.000218
3252.940531,0.000206
3253.422734,0.000203
3253.904937,0.000219
3254.387140,0.000371
3254.869343,0.000343
3255.351546,0.000307
3255.833749,0.000551
3256.315951,0.000687
3256.798154,0.000697
3257.280357,0.000898
3257.762560,0.001047
3258.244763,0.000899
3258.726966,0.000581
3259.209169,0.000269
3259.691371,0.000118
3260.173574,0.000215
3260.655777,0.000366
3261.137980,0.000344
3261.620183,0.000361
3262.102386,0.000474
3262.584589,0.000395
3263.066792,0.000259
3263.548994,0.000355
3264.031197,0.000467
3264.513400,0.000371
3264.995603,0.000306
3265.477806,0.000373
3265.960009,0.000420
3266.442212,0.000424
3266.924414,0.000384
3267.406617,0.000316
3267.888820,0.000275
3268.371023,0.000276
3268.853226,0.000281
3269.335429,0.000329
3269.817632,0.000431
3270.299835,0.000418
3270.782037,0.000346
3271.264240,0.000368
3271.746443,0.000441
3272.228646,0.000470
3272.710849,0.000558
3273.193052,0.000801
3273.675255,0.000823
3274.157457,0.000511
3274.639660,0.000365
3275.121863,0.000520
3275.604066,0.000529
3276.086269,0.000293
3276.568472,0.000328
3277.050675,0.000595
3277.532877,0.000575
3278.015080,0.000372
3278.497283,0.000293
3278.979486,0.000328
3279.461689,0.000402
3279.943892,0.000455
3280.426095,0.000412
3280.908298,0.000370
3281.390500,0.000413
3281.872703,0.000396
3282.354906,0.000260
3282.837109,0.000077
3283.319312,0.000054
3283.801515,0.000221
3284.283718,0.000225
3284.765920,0.000109
3285.248123,0.000150
3285.730326,0.000199
3286.212529,0.000146
3286.694732,0.000051
3287.176935,-0.000086
3287.659138,-0.000140
3288.141341,-0.000040
3288.623543,0.000065
3289.105746,0.000028
3289.587949,-0.000127
3290.070152,-0.000177
3290.552355,-0.000042
3291.034558,0.000029
3291.516761,-0.000040
3291.998963,-0.000029
3292.481166,0.000100
3292.963369,0.000194
3293.445572,0.000170
3293.927775,-0.000029
3294.409978,-0.000234
3294.892181,-0.000173
3295.374384,0.000023
3295.856586,0.000077
3296.338789,-0.000062
3296.820992,-0.000167
3297.303195,-0.000056
3297.785398,-0.000010
3298.267601,-0.000099
3298.749804,-0.000085
3299.232006,-0.000094
3299.714209,-0.000141
3300.196412,-0.000169
3300.678615,-0.000274
3301.160818,-0.000399
3301.643021,-0.000440
3302.125224,-0.000240
3302.607426,0.000008
3303.089629,-0.000019
3303.571832,-0.000148
3304.054035,-0.000271
3304.536238,-0.000353
3305.018441,-0.000318
3305.500644,-0.000320
3305.982847,-0.000388
3306.465049,-0.000310
3306.947252,-0.000064
3307.429455,0.000011
3307.911658,-0.000070
3308.393861,0.000045
3308.876064,0.000169
3309.358267,0.000022
3309.840469,-0.000173
3310.322672,-0.000291
3310.804875,-0.000349
3311.287078,-0.000203
3311.769281,-0.000138
3312.251484,-0.000267
3312.733687,-0.000258
3313.215890,-0.000332
3313.698092,-0.000492
3314.180295,-0.000436
3314.662498,-0.000274
3315.144701,-0.000210
3315.626904,-0.000345
3316.109107,-0.000320
3316.591310,-0.000107
3317.073512,-0.000181
3317.555715,-0.000326
3318.037918,-0.000344
3318.520121,-0.000463
3319.002324,-0.000476
3319.484527,-0.000246
3319.966730,-0.000160
3320.448933,-0.000327
3320.931135,-0.000441
3321.413338,-0.000394
3321.895541,-0.000303
3322.377744,-0.000216
3322.859947,-0.000181
3323.342150,-0.000245
3323.824353,-0.000304
3324.306555,-0.000377
3324.788758,-0.000415
3325.270961,-0.000289
3325.753164,-0.000247
3326.235367,-0.000369
3326.717570,-0.000470
3327.199773,-0.000424
3327.681976,-0.000335
3328.164178,-0.000386
3328.646381,-0.000398
3329.128584,-0.000406
3329.610787,-0.000502
3330.092990,-0.000460
3330.575193,-0.000289
3331.057396,-0.000216
3331.539598,-0.000256
3332.021801,-0.000174
3332.504004,-0.000156
3332.986207,-0.000293
3333.468410,-0.000284
3333.950613,-0.000311
3334.432816,-0.000356
3334.915018,-0.000203
3335.397221,0.000033
3335.879424,0.000230
3336.361627,0.000169
3336.843830,-0.000021
3337.326033,-0.000042
3337.808236,-0.000079
3338.290439,-0.000153
3338.772641,-0.000141
3339.254844,-0.000216
3339.737047,-0.000277
3340.219250,-0.000146
3340.701453,-0.000044
3341.183656,-0.000060
3341.665859,-0.000051
3342.148061,0.000013
3342.630264,0.000007
3343.112467,-0.000057
3343.594670,0.000020
3344.076873,0.000174
3344.559076,0.000158
3345.041279,0.000091
3345.523482,0.000114
3346.005684,0.000027
3346.487887,-0.000084
3346.970090,-0.000029
3347.452293,0.000092
3347.934496,0.000357
3348.416699,0.000571
3348.898902,0.000415
3349.381104,0.000211
3349.863307,0.000397
3350.345510,0.000758
3350.827713,0.000732
3351.309916,0.000554
3351.792119,0.000705
3352.274322,0.000901
3352.756525,0.000751
3353.238727,0.000509
3353.720930,0.000635
3354.203133,0.000832
3354.685336,0.000857
3355.167539,0.000953
3355.649742,0.000954
3356.131945,0.000803
3356.614147,0.000738
3357.096350,0.000846
3357.578553,0.000950
3358.060756,0.000851
3358.542959,0.000763
3359.025162,0.000908
3359.507365,0.001103
3359.989568,0.001056
3360.471770,0.001003
3360.953973,0.001230
3361.436176,0.001326
3361.918379,0.001219
3362.400582,0.001266
3362.882785,0.001224
3363.364988,0.000946
3363.847190,0.000849
3364.329393,0.000907
3364.811596,0.000871
3365.293799,0.000907
3365.776002,0.000960
3366.258205,0.000933
3366.740408,0.000892
3367.222610,0.000820
3367.704813,0.000904
3368.187016,0.001081
3368.669219,0.001098
3369.151422,0.001163
3369.633625,0.001432
3370.115828,0.001618
3370.598031,0.001564
3371.080233,0.001530
3371.562436,0.001620
3372.044639,0.001518
3372.526842,0.001097
3373.009045,0.000686
3373.491248,0.000499
3373.973451,0.000593
3374.455653,0.000924
3374.937856,0.001074
3375.420059,0.001040
3375.902262,0.001118
3376.384465,0.001095
3376.866668,0.000945
3377.348871,0.000934
3377.831074,0.001049
3378.313276,0.001176
3378.795479,0.001298
3379.277682,0.001283
3379.759885,0.001159
3380.242088,0.001380
3380.724291,0.001831
3381.206494,0.002016
3381.688696,0.002026
3382.170899,0.001985
3382.653102,0.001872
3383.135305,0.001734
3383.617508,0.001673
3384.099711,0.001738
3384.581914,0.001802
3385.064117,0.001806
3385.546319,0.001753
3386.028522,0.001833
3386.510725,0.002074
3386.992928,0.002050
3387.475131,0.001843
3387.957334,0.001739
3388.439537,0.001692
3388.921739,0.001849
3389.403942,0.002073
3389.886145,0.002121
3390.368348,0.002181
3390.850551,0.002232
3391.332754,0.002227
3391.814957,0.002266
3392.297160,0.002256
3392.779362,0.002194
3393.261565,0.002016
3393.743768,0.001780
3394.225971,0.001833
3394.708174,0.001887
3395.190377,0.001691
3395.672580,0.001677
3396.154782,0.001746
3396.636985,0.001699
3397.119188,0.001618
3397.601391,0.001396
3398.083594,0.001416
3398.565797,0.001710
3399.048000,0.001757
3399.530202,0.001709
3400.012405,0.001667
3400.494608,0.001660
3400.976811,0.001758
3401.459014,0.001698
3401.941217,0.001661
3402.423420,0.001665
3402.905623,0.001483
3403.387825,0.001366
3403.870028,0.001388
3404.352231,0.001640
3404.834434,0.001991
3405.316637,0.002066
3405.798840,0.002049
3406.281043,0.001921
3406.763245,0.001631
3407.245448,0.001487
3407.727651,0.001588
3408.209854,0.001807
3408.692057,0.001759
3409.174260,0.001684
3409.656463,0.001955
3410.138666,0.001967
3410.620868,0.001773
3411.103071,0.001834
3411.585274,0.001934
3412.067477,0.002020
3412.549680,0.001930
3413.031883,0.001626
3413.514086,0.001528
3413.996288,0.001700
3414.478491,0.001900
3414.960694,0.001864
3415.442897,0.001643
3415.925100,0.001586
3416.407303,0.001719
3416.889506,0.001836
3417.371709,0.001720
3417.853911,0.001571
3418.336114,0.001698
3418.818317,0.001699
3419.300520,0.001572
3419.782723,0.001660
3420.264926,0.001645
3420.747129,0.001607
3421.229331,0.001669
3421.711534,0.001514
3422.193737,0.001446
3422.675940,0.001662
3423.158143,0.001821
3423.640346,0.001769
3424.122549,0.001469
3424.604751,0.001206
3425.086954,0.001273
3425.569157,0.001371
3426.051360,0.001416
3426.533563,0.001539
3427.015766,0.001518
3427.497969,0.001434
3427.980172,0.001402
3428.462374,0.001213
3428.944577,0.001055
3429.426780,0.001147
3429.908983,0.001250
3430.391186,0.001252
3430.873389,0.001437
3431.355592,0.001745
3431.837794,0.001720
3432.319997,0.001631
3432.802200,0.001755
3433.284403,0.001737
3433.766606,0.001672
3434.248809,0.001582
3434.731012,0.001303
3435.213215,0.001325
3435.695417,0.001684
3436.177620,0.001794
3436.659823,0.001644
3437.142026,0.001587
3437.624229,0.001716
3438.106432,0.001808
3438.588635,0.001799
3439.070837,0.001867
3439.553040,0.001920
3440.035243,0.001943
3440.517446,0.001989
3440.999649,0.001963
3441.481852,0.002017
3441.964055,0.002118
3442.446258,0.002023
3442.928460,0.002046
3443.410663,0.002390
3443.892866,0.002337
3444.375069,0.001719
3444.857272,0.001502
3445.339475,0.001720
3445.821678,0.001832
3446.303880,0.002031
3446.786083,0.002119
3447.268286,0.001963
3447.750489,0.001951
3448.232692,0.001967
3448.714895,0.001867
3449.197098,0.001795
3449.679301,0.001821
3450.161503,0.001805
3450.643706,0.001607
3451.125909,0.001444
3451.608112,0.001360
3452.090315,0.001383
3452.572518,0.001739
3453.054721,0.001964
3453.536923,0.001525
3454.019126,0.000918
3454.501329,0.000829
3454.983532,0.001054
3455.465735,0.001215
3455.947938,0.001323
3456.430141,0.001155
3456.912343,0.000967
3457.394546,0.001147
3457.876749,0.001158
3458.358952,0.001080
3458.841155,0.001175
3459.323358,0.001015
3459.805561,0.000915
3460.287764,0.001007
3460.769966,0.000913
3461.252169,0.000990
3461.734372,0.001251
3462.216575,0.001234
3462.698778,0.001086
3463.180981,0.001065
3463.663184,0.001101
3464.145386,0.001231
3464.627589,0.001397
3465.109792,0.001144
3465.591995,0.000614
3466.074198,0.000518
3466.556401,0.000720
3467.038604,0.000778
3467.520807,0.000817
3468.003009,0.000806
3468.485212,0.000617
3468.967415,0.000450
3469.449618,0.000447
3469.931821,0.000600
3470.414024,0.000783
3470.896227,0.000836
3471.378429,0.000833
3471.860632,0.000844
3472.342835,0.000878
3472.825038,0.000879
3473.307241,0.000810
3473.789444,0.000775
3474.271647,0.000690
3474.753850,0.000581
3475.236052,0.000586
3475.718255,0.000626
3476.200458,0.000581
3476.682661,0.000443
3477.164864,0.000461
3477.647067,0.000593
3478.129270,0.000620
3478.611472,0.000613
3479.093675,0.000485
3479.575878,0.000478
3480.058081,0.000804
3480.540284,0.000939
3481.022487,0.000671
3481.504690,0.000345
3481.986893,0.000303
3482.469095,0.000567
3482.951298,0.000757
3483.433501,0.000683
3483.915704,0.000455
3484.397907,0.000178
3484.880110,0.000136
3485.362313,0.000364
3485.844515,0.000528
3486.326718,0.000568
3486.808921,0.000435
3487.291124,0.000289
3487.773327,0.000465
3488.255530,0.000578
3488.737733,0.000478
3489.219935,0.000543
3489.702138,0.000556
3490.184341,0.000306
3490.666544,0.000040
3491.148747,-0.000065
3491.630950,0.000045
3492.113153,0.000217
3492.595356,0.000195
3493.077558,0.000125
3493.559761,0.000116
3494.041964,0.000026
3494.524167,0.000017
3495.006370,0.000136
3495.488573,0.000159
3495.970776,0.000118
3496.452978,0.000204
3496.935181,0.000379
3497.417384,0.000349
3497.899587,0.000146
3498.381790,0.000075
3498.863993,0.000157
3499.346196,0.000174
3499.828399,-0.000028
3500.310601,-0.000150
3500.792804,-0.000062
3501.275007,-0.000063
3501.757210,0.000034
3502.239413,0.000237
3502.721616,0.000238
3503.203819,0.000265
3503.686021,0.000303
3504.168224,0.000144
3504.650427,-0.000061
3505.132630,-0.000149
3505.614833,-0.000110
3506.097036,-0.000219
3506.579239,-0.000365
3507.061442,-0.000254
3507.543644,-0.000145
3508.025847,-0.000163
3508.508050,-0.000181
3508.990253,-0.000080
3509.472456,0.000081
3509.954659,0.000090
3510.436862,-0.000009
3510.919064,-0.000040
3511.401267,0.000019
3511.883470,-0.000111
3512.365673,-0.000345
3512.847876,-0.000423
3513.330079,-0.000463
3513.812282,-0.000209
3514.294484,0.000103
3514.776687,-0.000001
3515.258890,0.000004
3515.741093,0.000115
3516.223296,0.000039
3516.705499,0.000035
3517.187702,-0.000002
3517.669905,-0.000077
3518.152107,-0.000049
3518.634310,-0.000109
3519.116513,-0.000173
3519.598716,-0.000171
3520.080919,-0.000177
3520.563122,-0.000088
3521.045325,0.000083
3521.527527,0.000178
3522.009730,0.000086
3522.491933,0.000064
3522.974136,0.000240
3523.456339,0.000276
3523.938542,0.000236
3524.420745,0.000286
3524.902948,0.000265
3525.385150,0.000213
3525.867353,0.000267
3526.349556,0.000259
3526.831759,0.000038
3527.313962,-0.000114
3527.796165,0.000009
3528.278368,0.000138
3528.760570,0.000086
3529.242773,0.000148
3529.724976,0.000355
3530.207179,0.000253
3530.689382,0.000070
3531.171585,0.000164
3531.653788,0.000139
3532.135991,0.000005
3532.618193,0.000170
3533.100396,0.000422
3533.582599,0.000501
3534.064802,0.000457
3534.547005,0.000358
3535.029208,0.000294
3535.511411,0.000161
3535.993613,0.000072
3536.475816,0.000210
3536.958019,0.000388
3537.440222,0.000512
3537.922425,0.000489
3538.404628,0.000529
3538.886831,0.000672
3539.369034,0.000474
3539.851236,0.000301
3540.333439,0.000383
3540.815642,0.000334
3541.297845,0.000260
3541.780048,0.000332
3542.262251,0.000462
3542.744454,0.000379
3543.226656,0.000169
3543.708859,0.000333
3544.191062,0.000676
3544.673265,0.000764
3545.155468,0.000684
3545.637671,0.000589
3546.119874,0.000555
3546.602076,0.000569
3547.084279,0.000644
3547.566482,0.000757
3548.048685,0.000737
3548.530888,0.000707
3549.013091,0.000796
3549.495294,0.000843
3549.977497,0.000828
3550.459699,0.000882
3550.941902,0.000910
3551.424105,0.000857
3551.906308,0.001022
3552.388511,0.001261
3552.870714,0.001349
3553.352917,0.001488
3553.835119,0.001447
3554.317322,0.001287
3554.799525,0.001376
3555.281728,0.001591
3555.763931,0.001826
3556.246134,0.001930
3556.728337,0.001845
3557.210540,0.001815
3557.692742,0.002002
3558.174945,0.002331
3558.657148,0.002480
3559.139351,0.002510
3559.621554,0.002793
3560.103757,0.003130
3560.585960,0.003299
3561.068162,0.003504
3561.550365,0.003712
3562.032568,0.003884
3562.514771,0.004007
3562.996974,0.004038
3563.479177,0.004431
3563.961380,0.005042
3564.443583,0.005312
3564.925785,0.005547
3565.407988,0.005775
3565.890191,0.006071
3566.372394,0.006763
3566.854597,0.007146
3567.336800,0.006928
3567.819003,0.006776
3568.301205,0.007108
3568.783408,0.007506
3569.265611,0.007317
3569.747814,0.007070
3570.230017,0.007031
3570.712220,0.007043
3571.194423,0.007318
3571.676626,0.007642
3572.158828,0.007895
3572.641031,0.007938
3573.123234,0.007704
3573.605437,0.007602
3574.087640,0.007626
3574.569843,0.007728
3575.052046,0.007785
3575.534248,0.007693
3576.016451,0.007705
3576.498654,0.007661
3576.980857,0.007390
3577.463060,0.007225
3577.945263,0.007391
3578.427466,0.007409
3578.909668,0.007007
3579.391871,0.006741
3579.874074,0.006874
3580.356277,0.007048
3580.838480,0.006759
3581.320683,0.006097
3581.802886,0.005589
3582.285089,0.005217
3582.767291,0.004801
3583.249494,0.004487
3583.731697,0.004264
3584.213900,0.003860
3584.696103,0.003480
3585.178306,0.003404
3585.660509,0.003444
3586.142711,0.003611
3586.624914,0.004245
3587.107117,0.005226
3587.589320,0.005722
3588.071523,0.006081
3588.553726,0.007240
3589.035929,0.008661
3589.518132,0.009611
3590.000334,0.010544
3590.482537,0.011067
3590.964740,0.009026
3591.446943,0.004703
3591.929146,0.001659
3592.411349,0.001044
3592.893552,0.001154
3593.375754,0.001380
3593.857957,0.001989
3594.340160,0.002217
3594.822363,0.001976
3595.304566,0.002426
3595.786769,0.003278
3596.268972,0.003665
3596.751175,0.004012
3597.233377,0.004327
3597.715580,0.004607
3598.197783,0.005309
3598.679986,0.005963
3599.162189,0.006218
3599.644392,0.006388
3600.126595,0.006563
3600.608797,0.006964
3601.091000,0.007414
3601.573203,0.007584
3602.055406,0.007723
3602.537609,0.007815
3603.019812,0.007843
3603.502015,0.007822
3603.984217,0.007664
3604.466420,0.007689
3604.948623,0.007830
3605.430826,0.007723
3605.913029,0.007573
3606.395232,0.007602
3606.877435,0.007665
3607.359638,0.007648
3607.841840,0.007626
3608.324043,0.007551
3608.806246,0.007302
3609.288449,0.007207
3609.770652,0.007257
3610.252855,0.006678
3610.735058,0.005788
3611.217260,0.005190
3611.699463,0.004743
3612.181666,0.004596
3612.663869,0.004821
3613.146072,0.004768
3613.628275,0.004258
3614.110478,0.003864
3614.592681,0.003813
3615.074883,0.003770
3615.557086,0.003249
3616.039289,0.002488
3616.521492,0.002057
3617.003695,0.002000
3617.485898,0.002180
3617.968101,0.002401
3618.450303,0.002215
3618.932506,0.001719
3619.414709,0.001440
3619.896912,0.001631
3620.379115,0.001568
3620.861318,0.000777
3621.343521,0.000159
3621.825724,-0.000045
3622.307926,-0.000272
3622.790129,-0.000392
3623.272332,-0.000312
3623.754535,-0.000335
3624.236738,-0.000354
3624.718941,-0.000133
3625.201144,-0.000001
3625.683346,-0.000130
3626.165549,-0.000264
3626.647752,-0.000307
3627.129955,-0.000256
3627.612158,-0.000247
3628.094361,-0.000227
3628.576564,0.000214
3629.058767,0.000617
3629.540969,0.000475
3630.023172,0.000364
3630.505375,0.000133
3630.987578,-0.000497
3631.469781,-0.001182
3631.951984,-0.001630
3632.434187,-0.001693
3632.916389,-0.001555
3633.398592,-0.001383
3633.880795,-0.001152
3634.362998,-0.001110
3634.845201,-0.001334
3635.327404,-0.001434
3635.809607,-0.001311
3636.291809,-0.001341
3636.774012,-0.001629
3637.256215,-0.001774
3637.738418,-0.001703
3638.220621,-0.001730
3638.702824,-0.001824
3639.185027,-0.001768
3639.667230,-0.001569
3640.149432,-0.001408
3640.631635,-0.001452
3641.113838,-0.001570
3641.596041,-0.001544
3642.078244,-0.001536
3642.560447,-0.001620
3643.042650,-0.001447
3643.524852,-0.001143
3644.007055,-0.001057
3644.489258,-0.001031
3644.971461,-0.000915
3645.453664,-0.000761
3645.935867,-0.000618
3646.418070,-0.000421
3646.900273,-0.000103
3647.382475,0.000190
3647.864678,0.000400
3648.346881,0.000300
3648.829084,-0.000063
3649.311287,0.000098
3649.793490,0.000614
3650.275693,0.000322
3650.757895,-0.000225
3651.240098,-0.000328
3651.722301,-0.000424
3652.204504,-0.000772
3652.686707,-0.001081
3653.168910,-0.001243
3653.651113,-0.001245
3654.133316,-0.001099
3654.615518,-0.000966
3655.097721,-0.000902
3655.579924,-0.000784
3656.062127,-0.000545
3656.544330,-0.000179
3657.026533,-0.000074
3657.508736,-0.000466
3657.990938,-0.000856
3658.473141,-0.001097
3658.955344,-0.001263
3659.437547,-0.001330
3659.919750,-0.001339
3660.401953,-0.001226
3660.884156,-0.001106
3661.366359,-0.001126
3661.848561,-0.001152
3662.330764,-0.001198
3662.812967,-0.001217
3663.295170,-0.001041
3663.777373,-0.000882
3664.259576,-0.000870
3664.741779,-0.000777
3665.223981,-0.000660
3665.706184,-0.000677
3666.188387,-0.000761
3666.670590,-0.000759
3667.152793,-0.000541
3667.634996,-0.000293
3668.117199,-0.000167
3668.599401,-0.000016
3669.081604,0.000267
3669.563807,0.000419
3670.046010,0.000156
3670.528213,0.000247
3671.010416,0.001049
3671.492619,0.001162
3671.974822,0.000391
3672.457024,-0.000050
3672.939227,0.000008
3673.421430,0.000232
3673.903633,0.000393
3674.385836,0.000545
3674.868039,0.000946
3675.350242,0.001508
3675.832444,0.001626
3676.314647,0.001425
3676.796850,0.001201
3677.279053,0.000636
3677.761256,0.000015
3678.243459,-0.000164
3678.725662,-0.000163
3679.207865,-0.000215
3679.690067,0.000023
3680.172270,0.000355
3680.654473,0.000255
3681.136676,-0.000025
3681.618879,-0.000077
3682.101082,0.000054
3682.583285,0.000108
3683.065487,-0.000025
3683.547690,-0.000098
3684.029893,0.000025
3684.512096,0.000211
3684.994299,0.000310
3685.476502,0.000486
3685.958705,0.000625
3686.440908,0.000414
3686.923110,0.000278
3687.405313,0.000494
3687.887516,0.000648
3688.369719,0.000995
3688.851922,0.001770
3689.334125,0.001795
3689.816328,0.001031
3690.298530,0.000595
3690.780733,0.000582
3691.262936,0.000633
3691.745139,0.000654
3692.227342,0.000479
3692.709545,0.000127
3693.191748,-0.000131
3693.673951,-0.000144
3694.156153,-0.000139
3694.638356,-0.000328
3695.120559,-0.000411
3695.602762,-0.000304
3696.084965,-0.000237
3696.567168,-0.000299
3697.049371,-0.000422
3697.531573,-0.000373
3698.013776,-0.000327
3698.495979,-0.000411
3698.978182,-0.000285
3699.460385,-0.000080
3699.942588,-0.000030
3700.424791,-0.000009
3700.906993,-0.000014
3701.389196,0.000028
3701.871399,0.000246
3702.353602,0.000345
3702.835805,0.000046
3703.318008,-0.000294
3703.800211,-0.000399
3704.282414,-0.000345
3704.764616,-0.000207
3705.246819,-0.000106
3705.729022,-0.000037
3706.211225,0.000063
3706.693428,-0.000097
3707.175631,-0.000352
3707.657834,-0.000176
3708.140036,0.000108
3708.622239,0.000168
3709.104442,0.000245
3709.586645,0.000484
3710.068848,0.000714
3710.551051,0.000557
3711.033254,0.000305
3711.515457,0.000305
3711.997659,0.000414
3712.479862,0.000768
3712.962065,0.000945
3713.444268,0.000380
3713.926471,-0.000221
3714.408674,-0.000355
3714.890877,-0.000177
3715.373079,-0.000123
3715.855282,-0.000387
3716.337485,-0.000619
3716.819688,-0.000588
3717.301891,-0.000489
3717.784094,-0.000459
3718.266297,-0.000440
3718.748500,-0.000350
3719.230702,-0.000043
3719.712905,0.000204
3720.195108,-0.000031
3720.677311,-0.000235
3721.159514,-0.000110
3721.641717,-0.000138
3722.123920,-0.000241
3722.606122,-0.000058
3723.088325,0.000155
3723.570528,-0.000001
3724.052731,-0.000316
3724.534934,-0.000424
3725.017137,-0.000333
3725.499340,-0.000182
3725.981542,-0.000211
3726.463745,-0.000180
3726.945948,0.000188
3727.428151,0.000185
3727.910354,-0.000211
3728.392557,-0.000391
3728.874760,-0.000489
3729.356963,-0.000548
3729.839165,-0.000420
3730.321368,-0.000190
3730.803571,-0.000041
3731.285774,-0.000000
3731.767977,0.000177
3732.250180,0.000773
3732.732383,0.001429
3733.214585,0.001193
3733.696788,0.000575
3734.178991,0.000431
3734.661194,0.000705
3735.143397,0.001291
3735.625600,0.001696
3736.107803,0.001147
3736.590006,0.000527
3737.072208,0.000824
3737.554411,0.001033
3738.036614,0.000428
3738.518817,0.000149
3739.001020,0.000312
3739.483223,0.000081
3739.965426,-0.000156
3740.447628,-0.000052
3740.929831,0.000161
3741.412034,0.000670
3741.894237,0.001035
3742.376440,0.000807
3742.858643,0.000608
3743.340846,0.000621
3743.823049,0.000971
3744.305251,0.002044
3744.787454,0.003144
3745.269657,0.003174
3745.751860,0.002227
3746.234063,0.001138
3746.716266,0.000633
3747.198469,0.000775
3747.680671,0.000891
3748.162874,0.000768
3748.645077,0.000664
3749.127280,0.000951
3749.609483,0.002021
3750.091686,0.002790
3750.573889,0.001881
3751.056092,0.000815
3751.538294,0.000555
3752.020497,0.000716
3752.502700,0.001363
3752.984903,0.002051
3753.467106,0.001389
3753.949309,0.000451
3754.431512,0.000256
3754.913714,0.000284
3755.395917,0.000234
3755.878120,0.000186
3756.360323,0.000133
3756.842526,0.000262
3757.324729,0.000437
3757.806932,0.000546
3758.289134,0.000584
3758.771337,0.000460
3759.253540,0.000443
3759.735743,0.000564
3760.217946,0.000728
3760.700149,0.000840
3761.182352,0.000461
3761.664555,-0.000015
3762.146757,0.000029
3762.628960,0.000261
3763.111163,0.000297
3763.593366,0.000150
3764.075569,0.000109
3764.557772,0.000255
3765.039975,0.000220
3765.522177,0.000283
3766.004380,0.000711
3766.486583,0.000817
3766.968786,0.000497
3767.450989,0.000320
3767.933192,0.000276
3768.415395,0.000184
3768.897598,0.000145
3769.379800,0.000202
3769.862003,0.000402
3770.344206,0.000791
3770.826409,0.000717
3771.308612,0.000166
3771.790815,-0.000072
3772.273018,-0.000102
3772.755220,-0.000189
3773.237423,-0.000225
3773.719626,-0.000293
3774.201829,-0.000289
3774.684032,-0.000144
3775.166235,-0.000075
3775.648438,-0.000126
3776.130641,-0.000162
3776.612843,-0.000068
3777.095046,0.000014
3777.577249,-0.000051
3778.059452,-0.000039
3778.541655,-0.000031
3779.023858,-0.000197
3779.506061,-0.000146
3779.988263,0.000239
3780.470466,0.000487
3780.952669,0.000248
3781.434872,-0.000145
3781.917075,-0.000168
3782.399278,-0.000146
3782.881481,-0.000327
3783.363684,-0.000298
3783.845886,-0.000172
3784.328089,-0.000271
3784.810292,-0.000351
3785.292495,-0.000169
3785.774698,-0.000027
3786.256901,-0.000103
3786.739104,-0.000163
3787.221306,-0.000150
3787.703509,-0.000176
3788.185712,-0.000247
3788.667915,-0.000215
3789.150118,-0.000184
3789.632321,-0.000264
3790.114524,-0.000227
3790.596726,-0.000204
3791.078929,-0.000339
3791.561132,-0.000428
3792.043335,-0.000402
3792.525538,-0.000263
3793.007741,-0.000168
3793.489944,-0.000261
3793.972147,-0.000271
3794.454349,-0.000039
3794.936552,0.000074
3795.418755,-0.000043
3795.900958,-0.000029
3796.383161,0.000155
3796.865364,0.000349
3797.347567,0.000444
3797.829769,0.000414
3798.311972,0.000420
3798.794175,0.000451
3799.276378,0.000467
3799.758581,0.000467
3800.240784,0.000331
3800.722987,0.000211
3801.205190,0.000428
3801.687392,0.001039
3802.169595,0.001414
3802.651798,0.001002
3803.134001,0.000465
3803.616204,0.000290
3804.098407,0.000300
3804.580610,0.000215
3805.062812,0.000122
3805.545015,0.000196
3806.027218,0.000271
3806.509421,0.000140
3806.991624,0.000266
3807.473827,0.000863
3807.956030,0.000783
3808.438233,0.000099
3808.920435,-0.000164
3809.402638,-0.000268
3809.884841,-0.000537
3810.367044,-0.000636
3810.849247,-0.000525
3811.331450,-0.000378
3811.813653,-0.000210
3812.295855,-0.000004
3812.778058,0.000151
3813.260261,0.000228
3813.742464,0.000270
3814.224667,0.000305
3814.706870,0.000448
3815.189073,0.000594
3815.671275,0.000539
3816.153478,0.000671
3816.635681,0.001187
3817.117884,0.001146
3817.600087,0.000641
3818.082290,0.000403
3818.564493,0.000313
3819.046696,0.000208
3819.528898,0.000241
3820.011101,0.000359
3820.493304,0.000439
3820.975507,0.000743
3821.457710,0.001182
3821.939913,0.001206
3822.422116,0.001027
3822.904318,0.000666
3823.386521,0.000181
3823.868724,0.000042
3824.350927,-0.000056
3824.833130,-0.000343
3825.315333,-0.000423
3825.797536,-0.000277
3826.279739,-0.000075
3826.761941,0.000004
3827.244144,-0.000079
3827.726347,-0.000085
3828.208550,-0.000041
3828.690753,-0.000071
3829.172956,-0.000002
3829.655159,0.000123
3830.137361,0.000053
3830.619564,-0.000008
3831.101767,0.000125
3831.583970,0.000318
3832.066173,0.000629
3832.548376,0.000752
3833.030579,0.000393
3833.512782,0.000151
3833.994984,0.000210
3834.477187,0.000255
3834.959390,0.000405
3835.441593,0.000696
3835.923796,0.000806
3836.405999,0.000688
3836.888202,0.000652
3837.370404,0.000724
3837.852607,0.000945
3838.334810,0.001677
3838.817013,0.001800
3839.299216,0.000920
3839.781419,0.000471
3840.263622,0.000619
3840.745825,0.000687
3841.228027,0.000660
3841.710230,0.000579
3842.192433,0.000286
3842.674636,-0.000050
3843.156839,-0.000163
3843.639042,-0.000019
3844.121245,0.000294
3844.603447,0.000366
3845.085650,0.000078
3845.567853,-0.000100
3846.050056,-0.000162
3846.532259,-0.000222
3847.014462,-0.000175
3847.496665,-0.000022
3847.978867,0.000164
3848.461070,0.000175
3848.943273,0.000168
3849.425476,0.000384
3849.907679,0.000595
3850.389882,0.000672
3850.872085,0.000782
3851.354288,0.001016
3851.836490,0.001344
3852.318693,0.002030
3852.800896,0.002406
3853.283099,0.001637
3853.765302,0.001241
3854.247505,0.002023
3854.729708,0.002761
3855.211910,0.002076
3855.694113,0.000825
3856.176316,0.000067
3856.658519,-0.000112
3857.140722,-0.000071
3857.622925,0.000078
3858.105128,0.000078
3858.587331,-0.000122
3859.069533,-0.000105
3859.551736,-0.000026
3860.033939,-0.000085
3860.516142,0.000082
3860.998345,0.000234
3861.480548,0.000184
3861.962751,0.000400
3862.444953,0.000537
3862.927156,0.000304
3863.409359,0.000236
3863.891562,0.000328
3864.373765,0.000387
3864.855968,0.000414
3865.338171,0.000612
3865.820374,0.001035
3866.302576,0.000923
3866.784779,0.000382
3867.266982,0.000231
3867.749185,0.000427
3868.231388,0.000472
3868.713591,0.000260
3869.195794,0.000371
3869.677996,0.001062
3870.160199,0.001554
3870.642402,0.001541
3871.124605,0.001145
3871.606808,0.000663
3872.089011,0.000473
3872.571214,0.000347
3873.053417,0.000100
3873.535619,-0.000101
3874.017822,-0.000156
3874.500025,0.000070
3874.982228,0.000374
3875.464431,0.000294
3875.946634,-0.000008
3876.428837,-0.000164
3876.911039,-0.000166
3877.393242,-0.000031
3877.875445,0.000166
3878.357648,0.000242
3878.839851,0.000185
3879.322054,0.000100
3879.804257,0.000197
3880.286459,0.000527
3880.768662,0.000856
3881.250865,0.000903
3881.733068,0.000547
3882.215271,0.000197
3882.697474,0.000241
3883.179677,0.000371
3883.661880,0.000404
3884.144082,0.000461
3884.626285,0.000413
3885.108488,0.000281
3885.590691,0.000406
3886.072894,0.000973
3886.555097,0.001265
3887.037300,0.000687
3887.519502,0.000099
3888.001705,-0.000040
3888.483908,-0.000035
3888.966111,0.000046
3889.448314,0.000074
3889.930517,-0.000102
3890.412720,-0.000133
3890.894923,0.000080
3891.377125,0.000362
3891.859328,0.000651
3892.341531,0.000589
3892.823734,0.000334
3893.305937,0.000238
3893.788140,0.000084
3894.270343,-0.000081
3894.752545,-0.000058
3895.234748,-0.000018
3895.716951,-0.000004
3896.199154,0.000112
3896.681357,0.000261
3897.163560,0.000339
3897.645763,0.000324
3898.127966,0.000264
3898.610168,0.000425
3899.092371,0.000725
3899.574574,0.001068
3900.056777,0.001349
3900.538980,0.000941
3901.021183,0.000409
3901.503386,0.000480
3901.985588,0.000920
3902.467791,0.001347
3902.949994,0.001095
3903.432197,0.000483
3903.914400,0.000310
3904.396603,0.000542
3904.878806,0.000807
3905.361008,0.000533
3905.843211,0.000115
3906.325414,0.000215
3906.807617,0.000282
3907.289820,0.000036
3907.772023,-0.000154
3908.254226,-0.000297
3908.736429,-0.000363
3909.218631,-0.000308
3909.700834,-0.000239
3910.183037,-0.000206
3910.665240,-0.000185
3911.147443,-0.000069
3911.629646,-0.000008
3912.111849,-0.000217
3912.594051,-0.000328
3913.076254,-0.000083
3913.558457,0.000095
3914.040660,0.000049
3914.522863,0.000068
3915.005066,0.000259
3915.487269,0.000365
3915.969472,0.000165
3916.451674,0.000108
3916.933877,0.000438
3917.416080,0.000654
3917.898283,0.000632
3918.380486,0.000481
3918.862689,0.000224
3919.344892,0.000115
3919.827094,0.000077
3920.309297,0.000016
3920.791500,0.000147
3921.273703,0.000234
3921.755906,0.000176
3922.238109,0.000183
3922.720312,0.000074
3923.202515,-0.000175
3923.684717,-0.000266
3924.166920,-0.000160
3924.649123,-0.000037
3925.131326,0.000114
3925.613529,0.000289
3926.095732,0.000238
3926.577935,0.000079
3927.060137,0.000050
3927.542340,0.000047
3928.024543,-0.000061
3928.506746,-0.000105
3928.988949,0.000130
3929.471152,0.000335
3929.953355,0.000358
3930.435558,0.000371
3930.917760,0.000295
3931.399963,0.000261
3931.882166,0.000363
3932.364369,0.000476
3932.846572,0.000526
3933.328775,0.000347
3933.810978,0.000094
3934.293180,0.000044
3934.775383,0.000041
3935.257586,-0.000063
3935.739789,-0.000151
3936.221992,-0.000247
3936.704195,-0.000266
3937.186398,-0.000071
3937.668600,0.000065
3938.150803,-0.000037
3938.633006,-0.000164
3939.115209,-0.000140
3939.597412,-0.000064
3940.079615,0.000015
3940.561818,0.000106
3941.044021,0.000031
3941.526223,-0.000026
3942.008426,0.000069
3942.490629,0.000070
3942.972832,0.000037
3943.455035,0.000023
3943.937238,0.000004
3944.419441,0.000086
3944.901643,0.000223
3945.383846,0.000253
3945.866049,0.000145
3946.348252,-0.000015
3946.830455,-0.000141
3947.312658,-0.000073
3947.794861,0.000066
3948.277064,0.000077
3948.759266,0.000101
3949.241469,0.000114
3949.723672,0.000176
3950.205875,0.000268
3950.688078,0.000058
3951.170281,-0.000151
3951.652484,-0.000028
3952.134686,0.000045
3952.616889,-0.000061
3953.099092,-0.000014
3953.581295,0.000119
3954.063498,0.000003
3954.545701,-0.000188
3955.027904,-0.000214
3955.510107,-0.000214
3955.992309,-0.000163
3956.474512,-0.000102
3956.956715,-0.000202
3957.438918,-0.000195
3957.921121,-0.000064
3958.403324,-0.000031
3958.885527,0.000002
3959.367729,-0.000140
3959.849932,-0.000361
3960.332135,-0.000343
3960.814338,-0.000245
3961.296541,-0.000004
3961.778744,0.000242
3962.260947,0.000195
3962.743150,0.000094
3963.225352,0.000039
3963.707555,0.000031
3964.189758,0.000041
3964.671961,-0.000011
3965.154164,0.000107
3965.636367,0.000278
3966.118570,0.000152
3966.600772,0.000020
3967.082975,0.000099
3967.565178,0.000052
3968.047381,-0.000114
3968.529584,-0.000183
3969.011787,-0.000168
3969.493990,-0.000027
3969.976192,0.000097
3970.458395,0.000087
3970.940598,0.000064
3971.422801,0.000059
3971.905004,0.000099
3972.387207,0.000033
3972.869410,-0.000232
3973.351613,-0.000289
3973.833815,-0.000037
3974.316018,0.000069
3974.798221,-0.000015
3975.280424,-0.000098
3975.762627,-0.000171
3976.244830,-0.000112
3976.727033,0.000015
3977.209235,0.000041
3977.691438,0.000025
3978.173641,0.000022
3978.655844,-0.000025
3979.138047,-0.000147
3979.620250,-0.000214
3980.102453,-0.000141
3980.584656,-0.000032
3981.066858,-0.000001
3981.549061,-0.000058
3982.031264,-0.000202
3982.513467,-0.000293
3982.995670,-0.000189
3983.477873,-0.000164
3983.960076,-0.000211
3984.442278,-0.000026
3984.924481,0.000209
3985.406684,0.000282
3985.888887,0.000284
3986.371090,0.000313
3986.853293,0.000285
3987.335496,0.000216
3987.817699,0.000234
3988.299901,0.000172
3988.782104,-0.000103
3989.264307,-0.000295
3989.746510,-0.000099
3990.228713,0.000146
3990.710916,0.000148
3991.193119,0.000103
3991.675321,-0.000026
3992.157524,-0.000078
3992.639727,0.000109
3993.121930,0.000173
3993.604133,0.000049
3994.086336,0.000007
3994.568539,0.000108
3995.050742,0.000212
3995.532944,0.000214
3996.015147,0.000131
3996.497350,-0.000035
3996.979553,-0.000241
3997.461756,-0.000281
3997.943959,-0.000153
3998.426162,-0.000125
3998.908364,-0.000141
3999.390567,-0.000032
3999.872770,0.000032
4000.354973,-0.000163
