XLabel,Wavenumber
YLabel,Absorbance
FileType,Absorbance
DisplayDirection,20300
PeakDirection,20312
899.790547,0.001839
900.272750,0.001490
900.754953,0.000989
901.237156,0.001423
901.719359,0.001224
902.201562,0.000514
902.683764,0.001411
903.165967,0.001802
903.648170,0.000078
904.130373,-0.000683
904.612576,-0.000523
905.094779,-0.000460
905.576982,0.000837
906.059184,0.000750
906.541387,-0.000425
907.023590,0.000083
907.505793,-0.000200
907.987996,-0.000464
908.470199,0.000471
908.952402,0.000153
909.434605,-0.000410
909.916807,-0.000331
910.399010,-0.000166
910.881213,0.000225
911.363416,0.000573
911.845619,0.000437
912.327822,-0.000167
912.810025,-0.000138
913.292227,-0.000298
913.774430,-0.000614
914.256633,0.000519
914.738836,0.000543
915.221039,-0.001141
915.703242,-0.001669
916.185445,-0.001080
916.667648,-0.000782
917.149850,-0.001196
917.632053,-0.001328
918.114256,-0.000758
918.596459,-0.000066
919.078662,0.000902
919.560865,0.001416
920.043068,0.000874
920.525270,0.000040
921.007473,-0.000537
921.489676,-0.000295
921.971879,0.000196
922.454082,-0.000145
922.936285,-0.000423
923.418488,-0.000656
923.900690,-0.001071
924.382893,-0.000402
924.865096,0.000196
925.347299,-0.000272
925.829502,-0.000589
926.311705,-0.000311
926.793908,0.000195
927.276111,0.000338
927.758313,0.000455
928.240516,0.000408
928.722719,-0.000299
929.204922,-0.000297
929.687125,0.000328
930.169328,0.000040
930.651531,-0.000527
931.133733,-0.000197
931.615936,0.000146
932.098139,0.000084
932.580342,0.000655
933.062545,0.001118
933.544748,0.000369
934.026951,-0.000588
934.509154,-0.000248
934.991356,0.000461
935.473559,-0.000033
935.955762,-0.000472
936.437965,-0.000175
936.920168,0.000118
937.402371,0.000336
937.884574,0.000352
938.366776,0.000146
938.848979,-0.000257
939.331182,-0.000415
939.813385,-0.000422
940.295588,-0.000363
940.777791,0.000234
941.259994,0.000682
941.742197,0.000688
942.224399,0.000249
942.706602,-0.000248
943.188805,-0.000197
943.671008,0.000120
944.153211,0.000733
944.635414,0.000617
945.117617,-0.000285
945.599819,-0.000468
946.082022,0.000144
946.564225,0.001050
947.046428,0.000899
947.528631,-0.000091
948.010834,-0.000270
948.493037,-0.000152
948.975240,-0.000217
949.457442,-0.000295
949.939645,-0.000192
950.421848,0.000104
950.904051,0.000037
951.386254,-0.000183
951.868457,-0.000271
952.350660,-0.000163
952.832862,0.000133
953.315065,0.000229
953.797268,0.000067
954.279471,-0.000380
954.761674,-0.000794
955.243877,-0.000713
955.726080,-0.000509
956.208282,-0.000372
956.690485,-0.000105
957.172688,0.000271
957.654891,0.000326
958.137094,-0.000042
958.619297,0.000008
959.101500,0.000018
959.583703,-0.000619
960.065905,-0.000549
960.548108,0.000250
961.030311,0.000536
961.512514,0.000220
961.994717,-0.000064
962.476920,0.000137
962.959123,0.000226
963.441325,-0.000013
963.923528,0.000087
964.405731,0.000295
964.887934,0.000287
965.370137,0.000378
965.852340,0.000471
966.334543,0.000351
966.816746,0.000307
967.298948,0.000376
967.781151,0.000257
968.263354,-0.000043
968.745557,-0.000256
969.227760,-0.000148
969.709963,0.000088
970.192166,0.000221
970.674368,0.000319
971.156571,0.000227
971.638774,-0.000106
972.120977,-0.000382
972.603180,-0.000385
973.085383,-0.000169
973.567586,-0.000098
974.049789,-0.000245
974.531991,-0.000277
975.014194,-0.000265
975.496397,-0.000321
975.978600,-0.000237
976.460803,-0.000119
976.943006,-0.000205
977.425209,-0.000419
977.907411,-0.000563
978.389614,-0.000524
978.871817,-0.000099
979.354020,0.000460
979.836223,0.000466
980.318426,0.000340
980.800629,0.000422
981.282831,0.000101
981.765034,-0.000274
982.247237,-0.000378
982.729440,-0.000419
983.211643,-0.000194
983.693846,-0.000008
984.176049,0.000048
984.658252,0.000190
985.140454,0.000078
985.622657,-0.000126
986.104860,-0.000184
986.587063,-0.000218
987.069266,-0.000138
987.551469,-0.000079
988.033672,-0.000094
988.515874,0.000025
988.998077,0.000172
989.480280,0.000129
989.962483,0.000047
990.444686,0.000115
990.926889,0.000206
991.409092,0.000231
991.891295,0.000169
992.373497,0.000097
992.855700,0.000084
993.337903,0.000046
993.820106,0.000109
994.302309,0.000204
994.784512,0.000195
995.266715,0.000183
995.748917,0.000083
996.231120,-0.000062
996.713323,0.000021
997.195526,0.000225
997.677729,0.000105
998.159932,-0.000102
998.642135,0.000070
999.124338,0.000285
999.606540,0.000317
1000.088743,0.000205
1000.570946,0.000046
1001.053149,0.000055
1001.535352,0.000128
1002.017555,0.000202
1002.499758,0.000179
1002.981960,0.000051
1003.464163,0.000017
1003.946366,0.000041
1004.428569,0.000183
1004.910772,0.000219
1005.392975,0.000016
1005.875178,0.000051
1006.357381,0.000072
1006.839583,-0.000184
1007.321786,-0.000164
1007.803989,0.000022
1008.286192,-0.000011
1008.768395,0.000003
1009.250598,0.000160
1009.732801,0.000270
1010.215003,0.000354
1010.697206,0.000463
1011.179409,0.000419
1011.661612,0.000261
1012.143815,0.000262
1012.626018,0.000269
1013.108221,0.000153
1013.590423,0.000139
1014.072626,0.000196
1014.554829,0.000181
1015.037032,0.000096
1015.519235,0.000032
1016.001438,0.000114
1016.483641,0.000255
1016.965844,0.000210
1017.448046,0.000002
1017.930249,-0.000035
1018.412452,0.000115
1018.894655,0.000138
1019.376858,0.000060
1019.859061,0.000104
1020.341264,0.000155
1020.823466,0.000075
1021.305669,0.000076
1021.787872,0.000160
1022.270075,0.000126
1022.752278,0.000060
1023.234481,-0.000013
1023.716684,-0.000070
1024.198887,0.000031
1024.681089,0.000082
1025.163292,-0.000015
1025.645495,0.000115
1026.127698,0.000373
1026.609901,0.000444
1027.092104,0.000506
1027.574307,0.000430
1028.056509,0.000144
1028.538712,0.000036
1029.020915,0.000073
1029.503118,0.000062
1029.985321,-0.000048
1030.467524,-0.000120
1030.949727,-0.000013
1031.431930,0.000011
1031.914132,-0.000115
1032.396335,-0.000208
1032.878538,-0.000213
1033.360741,-0.000068
1033.842944,0.000028
1034.325147,-0.000131
1034.807350,-0.000121
1035.289552,0.000123
1035.771755,0.000014
1036.253958,-0.000144
1036.736161,-0.000020
1037.218364,-0.000003
1037.700567,0.000006
1038.182770,0.000042
1038.664973,-0.000027
1039.147175,-0.000022
1039.629378,0.000095
1040.111581,0.000263
1040.593784,0.000354
1041.075987,0.000280
1041.558190,0.000088
1042.040393,-0.000030
1042.522595,0.000019
1043.004798,0.000042
1043.487001,-0.000003
1043.969204,-0.000120
1044.451407,-0.000175
1044.933610,-0.000042
1045.415813,0.000088
1045.898015,0.000152
1046.380218,0.000071
1046.862421,-0.000059
1047.344624,-0.000068
1047.826827,-0.000077
1048.309030,0.000019
1048.791233,0.000080
1049.273436,-0.000132
1049.755638,-0.000304
1050.237841,-0.000257
1050.720044,-0.000133
1051.202247,-0.000114
1051.684450,-0.000155
1052.166653,-0.000105
1052.648856,-0.000100
1053.131058,-0.000148
1053.613261,-0.000139
1054.095464,-0.000144
1054.577667,-0.000155
1055.059870,-0.000139
1055.542073,-0.000189
1056.024276,-0.000213
1056.506479,-0.000092
1056.988681,-0.000083
1057.470884,-0.000121
1057.953087,0.000050
1058.435290,0.000044
1058.917493,-0.000177
1059.399696,-0.000197
1059.881899,-0.000141
1060.364101,-0.000146
1060.846304,-0.000174
1061.328507,-0.000274
1061.810710,-0.000278
1062.292913,-0.000113
1062.775116,-0.000003
1063.257319,0.000050
1063.739522,0.000096
1064.221724,-0.000015
1064.703927,-0.000159
1065.186130,-0.000136
1065.668333,0.000015
1066.150536,0.000155
1066.632739,0.000080
1067.114942,-0.000107
1067.597144,-0.000107
1068.079347,0.000036
1068.561550,0.000114
1069.043753,0.000126
1069.525956,0.000070
1070.008159,-0.000093
1070.490362,-0.000145
1070.972564,-0.000026
1071.454767,0.000034
1071.936970,0.000014
1072.419173,-0.000017
1072.901376,0.000026
1073.383579,0.000124
1073.865782,0.000139
1074.347985,0.000137
1074.830187,0.000141
1075.312390,0.000027
1075.794593,-0.000145
1076.276796,-0.000100
1076.758999,0.000105
1077.241202,0.000121
1077.723405,0.000049
1078.205607,0.000029
1078.687810,-0.000022
1079.170013,0.000026
1079.652216,0.000161
1080.134419,0.000147
1080.616622,0.000047
1081.098825,0.000048
1081.581028,0.000053
1082.063230,0.000049
1082.545433,0.000117
1083.027636,0.000072
1083.509839,0.000007
1083.992042,0.000112
1084.474245,0.000163
1084.956448,0.000065
1085.438650,-0.000047
1085.920853,-0.000010
1086.403056,0.000092
1086.885259,0.000038
1087.367462,0.000051
1087.849665,0.000171
1088.331868,0.000145
1088.814071,0.000114
1089.296273,0.000106
1089.778476,0.000049
1090.260679,0.000083
1090.742882,0.000155
1091.225085,0.000128
1091.707288,0.000042
1092.189491,0.000009
1092.671693,0.000094
1093.153896,0.000260
1093.636099,0.000325
1094.118302,0.000194
1094.600505,0.000086
1095.082708,0.000105
1095.564911,0.000046
1096.047114,-0.000093
1096.529316,-0.000113
1097.011519,-0.000053
1097.493722,-0.000061
1097.975925,-0.000044
1098.458128,0.000003
1098.940331,-0.000074
1099.422534,-0.000037
1099.904736,0.000106
1100.386939,0.000006
1100.869142,-0.000083
1101.351345,0.000002
1101.833548,0.000041
1102.315751,0.000038
1102.797954,0.000003
1103.280156,-0.000023
1103.762359,-0.000047
1104.244562,-0.000112
1104.726765,-0.000091
1105.208968,-0.000008
1105.691171,0.000057
1106.173374,0.000067
1106.655577,0.000068
1107.137779,0.000125
1107.619982,0.000084
1108.102185,-0.000070
1108.584388,-0.000119
1109.066591,-0.000000
1109.548794,0.000121
1110.030997,0.000107
1110.513199,0.000030
1110.995402,0.000023
1111.477605,0.000026
1111.959808,-0.000036
1112.442011,-0.000023
1112.924214,0.000049
1113.406417,0.000021
1113.888620,-0.000031
1114.370822,0.000006
1114.853025,0.000075
1115.335228,0.000067
1115.817431,0.000015
1116.299634,-0.000045
1116.781837,-0.000069
1117.264040,-0.000018
1117.746242,-0.000045
1118.228445,-0.000076
1118.710648,-0.000006
1119.192851,0.000019
1119.675054,0.000028
1120.157257,-0.000002
1120.639460,-0.000068
1121.121663,-0.000031
1121.603865,-0.000015
1122.086068,-0.000042
1122.568271,0.000011
1123.050474,0.000050
1123.532677,0.000047
1124.014880,0.000066
1124.497083,0.000086
1124.979285,0.000062
1125.461488,-0.000003
1125.943691,-0.000005
1126.425894,0.000010
1126.908097,-0.000031
1127.390300,-0.000025
1127.872503,-0.000009
1128.354706,-0.000052
1128.836908,-0.000090
1129.319111,-0.000155
1129.801314,-0.000248
1130.283517,-0.000226
1130.765720,-0.000128
1131.247923,-0.000091
1131.730126,-0.000085
1132.212328,-0.000087
1132.694531,-0.000090
1133.176734,-0.000110
1133.658937,-0.000174
1134.141140,-0.000190
1134.623343,-0.000165
1135.105546,-0.000103
1135.587748,-0.000007
1136.069951,-0.000056
1136.552154,-0.000124
1137.034357,-0.000056
1137.516560,-0.000050
1137.998763,-0.000073
1138.480966,-0.000043
1138.963169,-0.000064
1139.445371,-0.000136
1139.927574,-0.000187
1140.409777,-0.000133
1140.891980,-0.000091
1141.374183,-0.000144
1141.856386,-0.000145
1142.338589,-0.000139
1142.820791,-0.000127
1143.302994,-0.000110
1143.785197,-0.000229
1144.267400,-0.000334
1144.749603,-0.000302
1145.231806,-0.000235
1145.714009,-0.000214
1146.196212,-0.000231
1146.678414,-0.000259
1147.160617,-0.000317
1147.642820,-0.000283
1148.125023,-0.000171
1148.607226,-0.000138
1149.089429,-0.000150
1149.571632,-0.000193
1150.053834,-0.000197
1150.536037,-0.000115
1151.018240,-0.000065
1151.500443,-0.000067
1151.982646,-0.000129
1152.464849,-0.000187
1152.947052,-0.000139
1153.429255,-0.000117
1153.911457,-0.000218
1154.393660,-0.000298
1154.875863,-0.000227
1155.358066,-0.000096
1155.840269,-0.000067
1156.322472,-0.000137
1156.804675,-0.000202
1157.286877,-0.000220
1157.769080,-0.000251
1158.251283,-0.000320
1158.733486,-0.000367
1159.215689,-0.000369
1159.697892,-0.000299
1160.180095,-0.000148
1160.662298,-0.000099
1161.144500,-0.000208
1161.626703,-0.000271
1162.108906,-0.000183
1162.591109,-0.000080
1163.073312,-0.000144
1163.555515,-0.000221
1164.037718,-0.000143
1164.519920,-0.000105
1165.002123,-0.000086
1165.484326,-0.000013
1165.966529,-0.000063
1166.448732,-0.000142
1166.930935,-0.000113
1167.413138,-0.000043
1167.895340,-0.000008
1168.377543,-0.000027
1168.859746,0.000046
1169.341949,0.000152
1169.824152,0.000029
1170.306355,-0.000176
1170.788558,-0.000221
1171.270761,-0.000177
1171.752963,-0.000168
1172.235166,-0.000178
1172.717369,-0.000176
1173.199572,-0.000164
1173.681775,-0.000126
1174.163978,-0.000160
1174.646181,-0.000268
1175.128383,-0.000283
1175.610586,-0.000254
1176.092789,-0.000265
1176.574992,-0.000278
1177.057195,-0.000251
1177.539398,-0.000190
1178.021601,-0.000183
1178.503804,-0.000198
1178.986006,-0.000209
1179.468209,-0.000212
1179.950412,-0.000128
1180.432615,-0.000027
1180.914818,-0.000003
1181.397021,-0.000076
1181.879224,-0.000196
1182.361426,-0.000173
1182.843629,-0.000038
1183.325832,-0.000029
1183.808035,-0.000086
1184.290238,-0.000092
1184.772441,-0.000133
1185.254644,-0.000157
1185.736847,-0.000080
1186.219049,-0.000035
1186.701252,-0.000100
1187.183455,-0.000120
1187.665658,-0.000023
1188.147861,0.000046
1188.630064,0.000026
1189.112267,-0.000019
1189.594469,-0.000007
1190.076672,0.000036
1190.558875,0.000034
1191.041078,0.000088
1191.523281,0.000124
1192.005484,0.000035
1192.487687,0.000006
1192.969889,0.000072
1193.452092,0.000099
1193.934295,-0.000018
1194.416498,-0.000158
1194.898701,-0.000076
1195.380904,0.000095
1195.863107,0.000140
1196.345310,0.000125
1196.827512,0.000083
1197.309715,0.000030
1197.791918,0.000056
1198.274121,0.000074
1198.756324,0.000010
1199.238527,-0.000043
1199.720730,-0.000105
1200.202932,-0.000175
1200.685135,-0.000159
1201.167338,-0.000089
1201.649541,-0.000091
1202.131744,-0.000156
1202.613947,-0.000136
1203.096150,-0.000103
1203.578353,-0.000137
1204.060555,-0.000161
1204.542758,-0.000190
1205.024961,-0.000172
1205.507164,-0.000115
1205.989367,-0.000137
1206.471570,-0.000202
1206.953773,-0.000153
1207.435975,-0.000055
1207.918178,-0.000076
1208.400381,-0.000161
1208.882584,-0.000275
1209.364787,-0.000286
1209.846990,-0.000122
1210.329193,-0.000078
1210.811396,-0.000137
1211.293598,-0.000103
1211.775801,-0.000066
1212.258004,-0.000070
1212.740207,-0.000065
1213.222410,-0.000073
1213.704613,-0.000105
1214.186816,-0.000079
1214.669018,-0.000085
1215.151221,-0.000115
1215.633424,-0.000014
1216.115627,0.000039
1216.597830,0.000054
1217.080033,0.000202
1217.562236,0.000331
1218.044439,0.000378
1218.526641,0.000346
1219.008844,0.000267
1219.491047,0.000300
1219.973250,0.000371
1220.455453,0.000362
1220.937656,0.000390
1221.419859,0.000451
1221.902061,0.000500
1222.384264,0.000628
1222.866467,0.000721
1223.348670,0.000675
1223.830873,0.000605
1224.313076,0.000614
1224.795279,0.000754
1225.277481,0.000890
1225.759684,0.000972
1226.241887,0.001113
1226.724090,0.001297
1227.206293,0.001537
1227.688496,0.001770
1228.170699,0.001898
1228.652902,0.001960
1229.135104,0.001998
1229.617307,0.002061
1230.099510,0.002121
1230.581713,0.002259
1231.063916,0.002514
1231.546119,0.002701
1232.028322,0.002892
1232.510524,0.003226
1232.992727,0.003643
1233.474930,0.004000
1233.957133,0.004133
1234.439336,0.004143
1234.921539,0.004237
1235.403742,0.004429
1235.885945,0.004656
1236.368147,0.004956
1236.850350,0.005383
1237.332553,0.005763
1237.814756,0.006104
1238.296959,0.006629
1238.779162,0.007096
1239.261365,0.007253
1239.743567,0.007387
1240.225770,0.007608
1240.707973,0.007843
1241.190176,0.008263
1241.672379,0.008806
1242.154582,0.009343
1242.636785,0.009928
1243.118988,0.010454
1243.601190,0.011027
1244.083393,0.011745
1244.565596,0.012253
1245.047799,0.012520
1245.530002,0.012906
1246.012205,0.013506
1246.494408,0.014193
1246.976610,0.014767
1247.458813,0.015237
1247.941016,0.015793
1248.423219,0.016422
1248.905422,0.017088
1249.387625,0.017704
1249.869828,0.018190
1250.352031,0.018657
1250.834233,0.019075
1251.316436,0.019459
1251.798639,0.019834
1252.280842,0.020046
1252.763045,0.020165
1253.245248,0.020191
1253.727451,0.019835
1254.209653,0.019159
1254.691856,0.018583
1255.174059,0.018134
1255.656262,0.017658
1256.138465,0.017182
1256.620668,0.016588
1257.102871,0.016009
1257.585073,0.015813
1258.067276,0.016010
1258.549479,0.016113
1259.031682,0.015957
1259.513885,0.016137
1259.996088,0.016653
1260.478291,0.017125
1260.960494,0.017281
1261.442696,0.017224
1261.924899,0.018089
1262.407102,0.020420
1262.889305,0.024620
1263.371508,0.029100
1263.853711,0.028989
1264.335914,0.024632
1264.818116,0.020771
1265.300319,0.018264
1265.782522,0.016508
1266.264725,0.015789
1266.746928,0.015750
1267.229131,0.015996
1267.711334,0.016523
1268.193537,0.017219
1268.675739,0.017887
1269.157942,0.018573
1269.640145,0.019303
1270.122348,0.019862
1270.604551,0.020163
1271.086754,0.020378
1271.568957,0.020550
1272.051159,0.020563
1272.533362,0.020381
1273.015565,0.020027
1273.497768,0.019618
1273.979971,0.019077
1274.462174,0.018386
1274.944377,0.017808
1275.426580,0.017296
1275.908782,0.016727
1276.390985,0.016128
1276.873188,0.015476
1277.355391,0.014852
1277.837594,0.014236
1278.319797,0.013525
1278.802000,0.012940
1279.284202,0.012611
1279.766405,0.012208
1280.248608,0.011703
1280.730811,0.011401
1281.213014,0.011227
1281.695217,0.010968
1282.177420,0.010541
1282.659622,0.009927
1283.141825,0.009333
1283.624028,0.008903
1284.106231,0.008460
1284.588434,0.007981
1285.070637,0.007583
1285.552840,0.007224
1286.035043,0.006898
1286.517245,0.006619
1286.999448,0.006339
1287.481651,0.006020
1287.963854,0.005585
1288.446057,0.004981
1288.928260,0.004389
1289.410463,0.004035
1289.892665,0.003843
1290.374868,0.003698
1290.857071,0.003609
1291.339274,0.003483
1291.821477,0.003237
1292.303680,0.003005
1292.785883,0.002843
1293.268086,0.002562
1293.750288,0.002198
1294.232491,0.001909
1294.714694,0.001682
1295.196897,0.001528
1295.679100,0.001449
1296.161303,0.001467
1296.643506,0.001480
1297.125708,0.001323
1297.607911,0.001163
1298.090114,0.001087
1298.572317,0.000951
1299.054520,0.000820
1299.536723,0.000683
1300.018926,0.000472
1300.501129,0.000401
1300.983331,0.000435
1301.465534,0.000439
1301.947737,0.000510
1302.429940,0.000464
1302.912143,0.000252
1303.394346,0.000165
1303.876549,0.000192
1304.358751,0.000197
1304.840954,0.000147
1305.323157,0.000057
1305.805360,0.000027
1306.287563,0.000005
1306.769766,-0.000057
1307.251969,-0.000023
1307.734172,0.000038
1308.216374,0.000121
1308.698577,0.000242
1309.180780,0.000315
1309.662983,0.000375
1310.145186,0.000345
1310.627389,0.000258
1311.109592,0.000322
1311.591794,0.000408
1312.073997,0.000447
1312.556200,0.000550
1313.038403,0.000611
1313.520606,0.000545
1314.002809,0.000487
1314.485012,0.000582
1314.967214,0.000696
1315.449417,0.000596
1315.931620,0.000371
1316.413823,0.000314
1316.896026,0.000498
1317.378229,0.000640
1317.860432,0.000607
1318.342635,0.000652
1318.824837,0.000705
1319.307040,0.000529
1319.789243,0.000424
1320.271446,0.000506
1320.753649,0.000480
1321.235852,0.000377
1321.718055,0.000307
1322.200257,0.000268
1322.682460,0.000324
1323.164663,0.000391
1323.646866,0.000402
1324.129069,0.000499
1324.611272,0.000733
1325.093475,0.001017
1325.575678,0.001147
1326.057880,0.000964
1326.540083,0.000716
1327.022286,0.000636
1327.504489,0.000568
1327.986692,0.000515
1328.468895,0.000617
1328.951098,0.000705
1329.433300,0.000690
1329.915503,0.000711
1330.397706,0.000849
1330.879909,0.000992
1331.362112,0.000916
1331.844315,0.000753
1332.326518,0.000674
1332.808721,0.000580
1333.290923,0.000601
1333.773126,0.000644
1334.255329,0.000585
1334.737532,0.000781
1335.219735,0.001054
1335.701938,0.001115
1336.184141,0.001281
1336.666343,0.001374
1337.148546,0.001089
1337.630749,0.000975
1338.112952,0.001305
1338.595155,0.001625
1339.077358,0.001671
1339.559561,0.001656
1340.041764,0.001858
1340.523966,0.001851
1341.006169,0.001287
1341.488372,0.000906
1341.970575,0.000907
1342.452778,0.000856
1342.934981,0.000883
1343.417184,0.000976
1343.899386,0.000882
1344.381589,0.000751
1344.863792,0.000798
1345.345995,0.000872
1345.828198,0.000788
1346.310401,0.000688
1346.792604,0.000613
1347.274806,0.000491
1347.757009,0.000439
1348.239212,0.000455
1348.721415,0.000510
1349.203618,0.000605
1349.685821,0.000584
1350.168024,0.000528
1350.650227,0.000497
1351.132429,0.000334
1351.614632,0.000276
1352.096835,0.000407
1352.579038,0.000372
1353.061241,0.000290
1353.543444,0.000398
1354.025647,0.000430
1354.507849,0.000327
1354.990052,0.000333
1355.472255,0.000335
1355.954458,0.000246
1356.436661,0.000251
1356.918864,0.000346
1357.401067,0.000533
1357.883270,0.000615
1358.365472,0.000328
1358.847675,0.000114
1359.329878,0.000225
1359.812081,0.000352
1360.294284,0.000603
1360.776487,0.000987
1361.258690,0.001073
1361.740892,0.000909
1362.223095,0.000870
1362.705298,0.001197
1363.187501,0.001545
1363.669704,0.001116
1364.151907,0.000445
1364.634110,0.000334
1365.116313,0.000411
1365.598515,0.000384
1366.080718,0.000319
1366.562921,0.000279
1367.045124,0.000341
1367.527327,0.000374
1368.009530,0.000396
1368.491733,0.000510
1368.973935,0.000558
1369.456138,0.000446
1369.938341,0.000344
1370.420544,0.000340
1370.902747,0.000388
1371.384950,0.000442
1371.867153,0.000532
1372.349355,0.000730
1372.831558,0.000956
1373.313761,0.001408
1373.795964,0.001815
1374.278167,0.001416
1374.760370,0.001024
1375.242573,0.001053
1375.724776,0.000753
1376.206978,0.000474
1376.689181,0.000518
1377.171384,0.000645
1377.653587,0.000872
1378.135790,0.000900
1378.617993,0.000745
1379.100196,0.000772
1379.582398,0.000689
1380.064601,0.000479
1380.546804,0.000544
1381.029007,0.000676
1381.511210,0.000768
1381.993413,0.000925
1382.475616,0.000992
1382.957819,0.001004
1383.440021,0.000997
1383.922224,0.001004
1384.404427,0.001183
1384.886630,0.001339
1385.368833,0.001385
1385.851036,0.001623
1386.333239,0.001995
1386.815441,0.002470
1387.297644,0.003222
1387.779847,0.003338
1388.262050,0.002425
1388.744253,0.001784
1389.226456,0.001750
1389.708659,0.001715
1390.190862,0.001701
1390.673064,0.001894
1391.155267,0.001895
1391.637470,0.001800
1392.119673,0.001947
1392.601876,0.002126
1393.084079,0.002300
1393.566282,0.002585
1394.048484,0.003406
1394.530687,0.004257
1395.012890,0.003706
1395.495093,0.002973
1395.977296,0.002863
1396.459499,0.002534
1396.941702,0.002370
1397.423905,0.002719
1397.906107,0.002884
1398.388310,0.002832
1398.870513,0.003330
1399.352716,0.003753
1399.834919,0.003078
1400.317122,0.002415
1400.799325,0.002325
1401.281527,0.002289
1401.763730,0.002207
1402.245933,0.002125
1402.728136,0.002072
1403.210339,0.002116
1403.692542,0.002252
1404.174745,0.002482
1404.656947,0.002915
1405.139150,0.003130
1405.621353,0.002600
1406.103556,0.002049
1406.585759,0.001894
1407.067962,0.001835
1407.550165,0.001888
1408.032368,0.001919
1408.514570,0.001868
1408.996773,0.001951
1409.478976,0.002033
1409.961179,0.001963
1410.443382,0.001912
1410.925585,0.001973
1411.407788,0.002018
1411.889990,0.001945
1412.372193,0.001768
1412.854396,0.001609
1413.336599,0.001580
1413.818802,0.001641
1414.301005,0.001754
1414.783208,0.001826
1415.265411,0.001856
1415.747613,0.002067
1416.229816,0.002305
1416.712019,0.002443
1417.194222,0.002817
1417.676425,0.003156
1418.158628,0.003157
1418.640831,0.003786
1419.123033,0.005371
1419.605236,0.005593
1420.087439,0.003667
1420.569642,0.002222
1421.051845,0.001814
1421.534048,0.001776
1422.016251,0.001834
1422.498454,0.001947
1422.980656,0.002035
1423.462859,0.002235
1423.945062,0.002484
1424.427265,0.002285
1424.909468,0.001820
1425.391671,0.001608
1425.873874,0.001613
1426.356076,0.001645
1426.838279,0.001587
1427.320482,0.001446
1427.802685,0.001376
1428.284888,0.001507
1428.767091,0.001718
1429.249294,0.002052
1429.731497,0.002539
1430.213699,0.002410
1430.695902,0.001703
1431.178105,0.001319
1431.660308,0.001299
1432.142511,0.001349
1432.624714,0.001399
1433.106917,0.001453
1433.589119,0.001392
1434.071322,0.001281
1434.553525,0.001346
1435.035728,0.001689
1435.517931,0.002255
1436.000134,0.003163
1436.482337,0.004852
1436.964539,0.005338
1437.446742,0.003187
1437.928945,0.001585
1438.411148,0.001260
1438.893351,0.001151
1439.375554,0.001054
1439.857757,0.000977
1440.339960,0.000930
1440.822162,0.000902
1441.304365,0.000783
1441.786568,0.000753
1442.268771,0.000864
1442.750974,0.000927
1443.233177,0.000767
1443.715380,0.000552
1444.197582,0.000579
1444.679785,0.000699
1445.161988,0.000785
1445.644191,0.000874
1446.126394,0.000958
1446.608597,0.001013
1447.090800,0.001093
1447.573003,0.001660
1448.055205,0.002205
1448.537408,0.001655
1449.019611,0.000943
1449.501814,0.000771
1449.984017,0.000712
1450.466220,0.000649
1450.948423,0.000533
1451.430625,0.000527
1451.912828,0.000806
1452.395031,0.000875
1452.877234,0.000623
1453.359437,0.000576
1453.841640,0.000801
1454.323843,0.001084
1454.806046,0.001573
1455.288248,0.002289
1455.770451,0.002996
1456.252654,0.004524
1456.734857,0.006794
1457.217060,0.005872
1457.699263,0.003597
1458.181466,0.003101
1458.663668,0.002884
1459.145871,0.002155
1459.628074,0.001399
1460.110277,0.000696
1460.592480,0.000356
1461.074683,0.000259
1461.556886,0.000259
1462.039089,0.000406
1462.521291,0.000504
1463.003494,0.000572
1463.485697,0.000739
1463.967900,0.001136
1464.450103,0.002139
1464.932306,0.002970
1465.414509,0.002047
1465.896711,0.000753
1466.378914,0.000329
1466.861117,0.000193
1467.343320,0.000173
1467.825523,0.000182
1468.307726,0.000042
1468.789929,0.000019
1469.272131,0.000124
1469.754334,0.000303
1470.236537,0.000567
1470.718740,0.000802
1471.200943,0.001351
1471.683146,0.002769
1472.165349,0.003679
1472.647552,0.002701
1473.129754,0.002356
1473.611957,0.002767
1474.094160,0.001745
1474.576363,0.000612
1475.058566,0.000403
1475.540769,0.000766
1476.022972,0.001558
1476.505174,0.001613
1476.987377,0.000642
1477.469580,-0.000016
1477.951783,-0.000277
1478.433986,-0.000422
1478.916189,-0.000401
1479.398392,-0.000374
1479.880595,-0.000400
1480.362797,-0.000361
1480.845000,-0.000191
1481.327203,-0.000084
1481.809406,-0.000210
1482.291609,-0.000388
1482.773812,-0.000558
1483.256015,-0.000654
1483.738217,-0.000597
1484.220420,-0.000510
1484.702623,-0.000400
1485.184826,-0.000304
1485.667029,-0.000115
1486.149232,0.000157
1486.631435,0.000434
1487.113638,0.001012
1487.595840,0.001136
1488.078043,0.000495
1488.560246,0.000278
1489.042449,0.000798
1489.524652,0.001596
1490.006855,0.001918
1490.489058,0.001608
1490.971260,0.001101
1491.453463,0.000239
1491.935666,-0.000447
1492.417869,-0.000596
1492.900072,-0.000708
1493.382275,-0.000748
1493.864478,-0.000592
1494.346680,-0.000398
1494.828883,-0.000159
1495.311086,0.000261
1495.793289,0.001402
1496.275492,0.002557
1496.757695,0.001655
1497.239898,0.000321
1497.722101,0.000053
1498.204303,0.000465
1498.686506,0.001244
1499.168709,0.001129
1499.650912,-0.000066
1500.133115,-0.000720
1500.615318,-0.000763
1501.097521,-0.000701
1501.579723,-0.000533
1502.061926,-0.000551
1502.544129,-0.000760
1503.026332,-0.000736
1503.508535,-0.000502
1503.990738,-0.000204
1504.472941,0.000382
1504.955144,0.001805
1505.437346,0.004199
1505.919549,0.005215
1506.401752,0.004615
1506.883955,0.005265
1507.366158,0.004915
1507.848361,0.002845
1508.330564,0.001979
1508.812766,0.001601
1509.294969,0.000976
1509.777172,0.000707
1510.259375,0.000342
1510.741578,-0.000153
1511.223781,-0.000300
1511.705984,0.000059
1512.188187,0.000774
1512.670389,0.000609
1513.152592,-0.000281
1513.634795,-0.000527
1514.116998,-0.000317
1514.599201,0.000094
1515.081404,0.000557
1515.563607,0.000557
1516.045809,0.000815
1516.528012,0.001605
1517.010215,0.002106
1517.492418,0.001990
1517.974621,0.001003
1518.456824,0.000012
1518.939027,-0.000137
1519.421230,0.000337
1519.903432,0.001513
1520.385635,0.002685
1520.867838,0.003402
1521.350041,0.003908
1521.832244,0.002793
1522.314447,0.001785
1522.796650,0.001626
1523.278852,0.000725
1523.761055,-0.000067
1524.243258,-0.000048
1524.725461,0.000414
1525.207664,0.001280
1525.689867,0.001492
1526.172070,0.000436
1526.654272,-0.000238
1527.136475,0.000077
1527.618678,0.000185
1528.100881,-0.000137
1528.583084,-0.000267
1529.065287,-0.000629
1529.547490,-0.001095
1530.029693,-0.001214
1530.511895,-0.001265
1530.994098,-0.001142
1531.476301,-0.000627
1531.958504,-0.000249
1532.440707,-0.000023
1532.922910,0.000697
1533.405113,0.001590
1533.887315,0.001652
1534.369518,0.000545
1534.851721,-0.000674
1535.333924,-0.001052
1535.816127,-0.001068
1536.298330,-0.001110
1536.780533,-0.000906
1537.262736,-0.000556
1537.744938,0.000077
1538.227141,0.001401
1538.709344,0.003583
1539.191547,0.005145
1539.673750,0.004452
1540.155953,0.004071
1540.638156,0.003567
1541.120358,0.002087
1541.602561,0.002217
1542.084764,0.003482
1542.566967,0.002462
1543.049170,0.000822
1543.531373,0.000505
1544.013576,0.000394
1544.495779,0.000474
1544.977981,0.001351
1545.460184,0.001398
1545.942387,0.000216
1546.424590,-0.000505
1546.906793,-0.000630
1547.388996,-0.000542
1547.871199,-0.000306
1548.353401,-0.000056
1548.835604,0.000240
1549.317807,0.000754
1549.800010,0.001360
1550.282213,0.001523
1550.764416,0.001061
1551.246619,0.000681
1551.728822,0.000842
1552.211024,0.001146
1552.693227,0.001479
1553.175430,0.002096
1553.657633,0.003138
1554.139836,0.004727
1554.622039,0.005233
1555.104242,0.004007
1555.586444,0.003506
1556.068647,0.004076
1556.550850,0.004919
1557.033053,0.006723
1557.515256,0.009510
1557.997459,0.011607
1558.479662,0.012792
1558.961864,0.012499
1559.444067,0.012011
1559.926270,0.013158
1560.408473,0.012880
1560.890676,0.010438
1561.372879,0.009229
1561.855082,0.009414
1562.337285,0.010077
1562.819487,0.010711
1563.301690,0.011474
1563.783893,0.012502
1564.266096,0.013807
1564.748299,0.015345
1565.230502,0.016310
1565.712705,0.016656
1566.194907,0.017409
1566.677110,0.018677
1567.159313,0.020060
1567.641516,0.021459
1568.123719,0.023175
1568.605922,0.025569
1569.088125,0.028354
1569.570328,0.031032
1570.052530,0.032496
1570.534733,0.032905
1571.016936,0.034330
1571.499139,0.036581
1571.981342,0.038401
1572.463545,0.040259
1572.945748,0.042967
1573.427950,0.046138
1573.910153,0.048925
1574.392356,0.051425
1574.874559,0.054636
1575.356762,0.059352
1575.838965,0.065183
1576.321168,0.069664
1576.803371,0.071392
1577.285573,0.073809
1577.767776,0.077589
1578.249979,0.081192
1578.732182,0.084437
1579.214385,0.088517
1579.696588,0.093847
1580.178791,0.099268
1580.660993,0.103534
1581.143196,0.107894
1581.625399,0.114142
1582.107602,0.120817
1582.589805,0.125305
1583.072008,0.128570
1583.554211,0.133861
1584.036413,0.141640
1584.518616,0.148956
1585.000819,0.153722
1585.483022,0.158339
1585.965225,0.166587
1586.447428,0.176439
1586.929631,0.181793
1587.411834,0.183524
1587.894036,0.188934
1588.376239,0.199415
1588.858442,0.208392
1589.340645,0.212446
1589.822848,0.217660
1590.305051,0.230067
1590.787254,0.243055
1591.269456,0.244736
1591.751659,0.242303
1592.233862,0.252214
1592.716065,0.266654
1593.198268,0.268005
1593.680471,0.265894
1594.162674,0.277790
1594.644877,0.295024
1595.127079,0.295842
1595.609282,0.285853
1596.091485,0.289164
1596.573688,0.302157
1597.055891,0.299642
1597.538094,0.290099
1598.020297,0.299996
1598.502499,0.320001
1598.984702,0.319677
1599.466905,0.302911
1599.949108,0.299921
1600.431311,0.309499
1600.913514,0.304072
1601.395717,0.292929
1601.877920,0.305149
1602.360122,0.323851
1602.842325,0.310362
1603.324528,0.283266
1603.806731,0.282796
1604.288934,0.295229
1604.771137,0.289065
1605.253340,0.286584
1605.735542,0.307011
1606.217745,0.302585
1606.699948,0.263076
1607.182151,0.247606
1607.664354,0.262817
1608.146557,0.282602
1608.628760,0.286483
1609.110963,0.259929
1609.593165,0.235242
1610.075368,0.229789
1610.557571,0.237144
1611.039774,0.254559
1611.521977,0.241417
1612.004180,0.200433
1612.486383,0.192906
1612.968585,0.219189
1613.450788,0.212722
1613.932991,0.177974
1614.415194,0.180931
1614.897397,0.193365
1615.379600,0.174206
1615.861803,0.160274
1616.344005,0.150766
1616.826208,0.133346
1617.308411,0.131945
1617.790614,0.143939
1618.272817,0.163168
1618.755020,0.188646
1619.237223,0.218453
1619.719426,0.242431
1620.201628,0.256828
1620.683831,0.281135
1621.166034,0.308051
1621.648237,0.316855
1622.130440,0.326806
1622.612643,0.354223
1623.094846,0.373363
1623.577048,0.378231
1624.059251,0.396181
1624.541454,0.405091
1625.023657,0.390715
1625.505860,0.399512
1625.988063,0.425750
1626.470266,0.413119
1626.952469,0.408435
1627.434671,0.438953
1627.916874,0.429343
1628.399077,0.411924
1628.881280,0.436276
1629.363483,0.428447
1629.845686,0.402567
1630.327889,0.419719
1630.810091,0.415104
1631.292294,0.384504
1631.774497,0.394163
1632.256700,0.387740
1632.738903,0.356092
1633.221106,0.362813
1633.703309,0.355117
1634.185512,0.323682
1634.667714,0.327698
1635.149917,0.318620
1635.632120,0.293460
1636.114323,0.297056
1636.596526,0.271267
1637.078729,0.246607
1637.560932,0.247662
1638.043134,0.228285
1638.525337,0.218112
1639.007540,0.220389
1639.489743,0.200318
1639.971946,0.194041
1640.454149,0.186221
1640.936352,0.161834
1641.418555,0.155557
1641.900757,0.142800
1642.382960,0.127846
1642.865163,0.124818
1643.347366,0.110829
1643.829569,0.103429
1644.311772,0.099026
1644.793975,0.087436
1645.276177,0.085609
1645.758380,0.081353
1646.240583,0.072417
1646.722786,0.064252
1647.204989,0.054742
1647.687192,0.051044
1648.169395,0.046762
1648.651597,0.041575
1649.133800,0.037738
1649.616003,0.033007
1650.098206,0.030609
1650.580409,0.028112
1651.062612,0.025898
1651.544815,0.025198
1652.027018,0.024441
1652.509220,0.025017
1652.991423,0.023975
1653.473626,0.020685
1653.955829,0.017935
1654.438032,0.016225
1654.920235,0.014432
1655.402438,0.012273
1655.884640,0.011053
1656.366843,0.010369
1656.849046,0.009805
1657.331249,0.009283
1657.813452,0.008787
1658.295655,0.008404
1658.777858,0.007992
1659.260061,0.007772
1659.742263,0.007638
1660.224466,0.007514
1660.706669,0.007445
1661.188872,0.007503
1661.671075,0.007609
1662.153278,0.007878
1662.635481,0.008578
1663.117683,0.008372
1663.599886,0.007114
1664.082089,0.006411
1664.564292,0.006213
1665.046495,0.006114
1665.528698,0.006161
1666.010901,0.006211
1666.493104,0.006285
1666.975306,0.006428
1667.457509,0.006623
1667.939712,0.007168
1668.421915,0.007907
1668.904118,0.008762
1669.386321,0.009573
1669.868524,0.008937
1670.350726,0.007651
1670.832929,0.007441
1671.315132,0.008054
1671.797335,0.008187
1672.279538,0.007554
1672.761741,0.007190
1673.243944,0.007476
1673.726146,0.008019
1674.208349,0.008669
1674.690552,0.009799
1675.172755,0.011425
1675.654958,0.011435
1676.137161,0.009732
1676.619364,0.008865
1677.101567,0.008920
1677.583769,0.009111
1678.065972,0.009334
1678.548175,0.009569
1679.030378,0.009899
1679.512581,0.010365
1679.994784,0.010891
1680.476987,0.011257
1680.959189,0.011257
1681.441392,0.011247
1681.923595,0.011629
1682.405798,0.012514
1682.888001,0.014011
1683.370204,0.015579
1683.852407,0.016163
1684.334610,0.016535
1684.816812,0.016801
1685.299015,0.015004
1685.781218,0.012763
1686.263421,0.011646
1686.745624,0.011297
1687.227827,0.011163
1687.710030,0.011050
1688.192232,0.011038
1688.674435,0.010810
1689.156638,0.010235
1689.638841,0.009923
1690.121044,0.009951
1690.603247,0.009666
1691.085450,0.009070
1691.567653,0.008560
1692.049855,0.008126
1692.532058,0.007683
1693.014261,0.007253
1693.496464,0.007000
1693.978667,0.007037
1694.460870,0.007337
1694.943073,0.008221
1695.425275,0.010224
1695.907478,0.012150
1696.389681,0.011425
1696.871884,0.010704
1697.354087,0.012208
1697.836290,0.015162
1698.318493,0.018378
1698.800696,0.021627
1699.282898,0.023666
1699.765101,0.021803
1700.247304,0.016234
1700.729507,0.011743
1701.211710,0.008661
1701.693913,0.006433
1702.176116,0.005456
1702.658318,0.005136
1703.140521,0.005268
1703.622724,0.005798
1704.104927,0.006827
1704.587130,0.007990
1705.069333,0.008233
1705.551536,0.008322
1706.033738,0.009446
1706.515941,0.010565
1706.998144,0.010445
1707.480347,0.010161
1707.962550,0.010393
1708.444753,0.010823
1708.926956,0.011359
1709.409159,0.011905
1709.891361,0.012557
1710.373564,0.013143
1710.855767,0.013311
1711.337970,0.013536
1711.820173,0.013870
1712.302376,0.014044
1712.784579,0.014225
1713.266781,0.014544
1713.748984,0.015115
1714.231187,0.015500
1714.713390,0.015729
1715.195593,0.016128
1715.677796,0.015777
1716.159999,0.015033
1716.642202,0.015226
1717.124404,0.016554
1717.606607,0.017367
1718.088810,0.016310
1718.571013,0.015370
1719.053216,0.014433
1719.535419,0.012985
1720.017622,0.012159
1720.499824,0.011849
1720.982027,0.011582
1721.464230,0.011383
1721.946433,0.011086
1722.428636,0.010801
1722.910839,0.010787
1723.393042,0.010814
1723.875245,0.010480
1724.357447,0.010035
1724.839650,0.009865
1725.321853,0.009700
1725.804056,0.009405
1726.286259,0.009224
1726.768462,0.009174
1727.250665,0.009207
1727.732867,0.009265
1728.215070,0.009267
1728.697273,0.009271
1729.179476,0.009454
1729.661679,0.009965
1730.143882,0.010365
1730.626085,0.010147
1731.108288,0.009791
1731.590490,0.009910
1732.072693,0.010455
1732.554896,0.011236
1733.037099,0.012727
1733.519302,0.014384
1734.001505,0.014833
1734.483708,0.015200
1734.965910,0.014648
1735.448113,0.012824
1735.930316,0.011987
1736.412519,0.012018
1736.894722,0.012216
1737.376925,0.012543
1737.859128,0.012841
1738.341330,0.013204
1738.823533,0.013735
1739.305736,0.014687
1739.787939,0.015751
1740.270142,0.015439
1740.752345,0.014369
1741.234548,0.014021
1741.716751,0.014108
1742.198953,0.014234
1742.681156,0.014596
1743.163359,0.014992
1743.645562,0.014937
1744.127765,0.014552
1744.609968,0.014260
1745.092171,0.014111
1745.574373,0.014082
1746.056576,0.014112
1746.538779,0.014151
1747.020982,0.014348
1747.503185,0.014436
1747.985388,0.014314
1748.467591,0.014506
1748.949794,0.014724
1749.431996,0.014457
1749.914199,0.014183
1750.396402,0.014342
1750.878605,0.015185
1751.360808,0.016001
1751.843011,0.015124
1752.325214,0.013708
1752.807416,0.013311
1753.289619,0.013377
1753.771822,0.013267
1754.254025,0.013167
1754.736228,0.013204
1755.218431,0.013366
1755.700634,0.013509
1756.182837,0.013666
1756.665039,0.014064
1757.147242,0.013996
1757.629445,0.013211
1758.111648,0.012689
1758.593851,0.012416
1759.076054,0.012085
1759.558257,0.011880
1760.040459,0.011672
1760.522662,0.011327
1761.004865,0.011087
1761.487068,0.011300
1761.969271,0.011173
1762.451474,0.009721
1762.933677,0.008213
1763.415880,0.007389
1763.898082,0.006804
1764.380285,0.006327
1764.862488,0.005898
1765.344691,0.005488
1765.826894,0.005115
1766.309097,0.004765
1766.791300,0.004517
1767.273502,0.004413
1767.755705,0.004675
1768.237908,0.004890
1768.720111,0.004079
1769.202314,0.002925
1769.684517,0.002461
1770.166720,0.002480
1770.648922,0.002731
1771.131125,0.003341
1771.613328,0.003536
1772.095531,0.003282
1772.577734,0.003643
1773.059937,0.003302
1773.542140,0.001683
1774.024343,0.000729
1774.506545,0.000476
1774.988748,0.000344
1775.470951,0.000483
1775.953154,0.000545
1776.435357,0.000211
1776.917560,-0.000103
1777.399763,-0.000255
1777.881965,-0.000383
1778.364168,-0.000418
1778.846371,-0.000265
1779.328574,-0.000091
1779.810777,0.000042
1780.292980,0.000393
1780.775183,0.000646
1781.257386,0.000295
1781.739588,-0.000102
1782.221791,-0.000138
1782.703994,-0.000163
1783.186197,-0.000200
1783.668400,-0.000051
1784.150603,0.000292
1784.632806,0.000804
1785.115008,0.001013
1785.597211,0.000587
1786.079414,0.000178
1786.561617,0.000113
1787.043820,0.000142
1787.526023,0.000174
1788.008226,0.000333
1788.490429,0.000611
1788.972631,0.000694
1789.454834,0.000642
1789.937037,0.000824
1790.419240,0.001210
1790.901443,0.001666
1791.383646,0.001715
1791.865849,0.001513
1792.348051,0.002268
1792.830254,0.002985
1793.312457,0.001778
1793.794660,0.000499
1794.276863,0.000351
1794.759066,0.000390
1795.241269,0.000262
1795.723471,0.000363
1796.205674,0.000633
1796.687877,0.000727
1797.170080,0.000422
1797.652283,0.000103
1798.134486,0.000325
1798.616689,0.000663
1799.098892,0.000771
1799.581094,0.000935
1800.063297,0.000881
1800.545500,0.000770
1801.027703,0.000876
1801.509906,0.000574
1801.992109,0.000313
1802.474312,0.000713
1802.956514,0.000820
1803.438717,0.000372
1803.920920,0.000241
1804.403123,0.000757
1804.885326,0.001244
1805.367529,0.000873
1805.849732,0.000380
1806.331935,0.000697
1806.814137,0.001034
1807.296340,0.000870
1807.778543,0.000795
1808.260746,0.001272
1808.742949,0.001880
1809.225152,0.001593
1809.707355,0.000856
1810.189557,0.001116
1810.671760,0.001944
1811.153963,0.001836
1811.636166,0.001102
1812.118369,0.001363
1812.600572,0.002305
1813.082775,0.001926
1813.564978,0.000703
1814.047180,0.000584
1814.529383,0.001354
1815.011586,0.001638
1815.493789,0.001164
1815.975992,0.001333
1816.458195,0.002528
1816.940398,0.002586
1817.422600,0.001318
1817.904803,0.000871
1818.387006,0.001593
1818.869209,0.002203
1819.351412,0.001751
1819.833615,0.001741
1820.315818,0.003171
1820.798021,0.003166
1821.280223,0.001495
1821.762426,0.001011
1822.244629,0.001903
1822.726832,0.002825
1823.209035,0.002474
1823.691238,0.002488
1824.173441,0.004368
1824.655643,0.004697
1825.137846,0.003072
1825.620049,0.002215
1826.102252,0.002538
1826.584455,0.003459
1827.066658,0.003144
1827.548861,0.003125
1828.031063,0.005145
1828.513266,0.005007
1828.995469,0.002902
1829.477672,0.002639
1829.959875,0.004178
1830.442078,0.005539
1830.924281,0.004453
1831.406484,0.004137
1831.888686,0.005791
1832.370889,0.004484
1832.853092,0.001862
1833.335295,0.001584
1833.817498,0.003036
1834.299701,0.004745
1834.781904,0.004683
1835.264106,0.005419
1835.746309,0.006706
1836.228512,0.004249
1836.710715,0.001871
1837.192918,0.002369
1837.675121,0.004224
1838.157324,0.005797
1838.639527,0.005713
1839.121729,0.006877
1839.603932,0.007026
1840.086135,0.003578
1840.568338,0.001813
1841.050541,0.002696
1841.532744,0.005043
1842.014947,0.006929
1842.497149,0.007537
1842.979352,0.009087
1843.461555,0.007924
1843.943758,0.005232
1844.425961,0.005226
1844.908164,0.005562
1845.390367,0.006582
1845.872570,0.007592
1846.354772,0.008421
1846.836975,0.008402
1847.319178,0.004941
1847.801381,0.002411
1848.283584,0.002802
1848.765787,0.004531
1849.247990,0.006943
1849.730192,0.008313
1850.212395,0.008851
1850.694598,0.006487
1851.176801,0.002576
1851.659004,0.001785
1852.141207,0.003109
1852.623410,0.005403
1853.105613,0.007789
1853.587815,0.009150
1854.070018,0.007870
1854.552221,0.003809
1855.034424,0.001675
1855.516627,0.002332
1855.998830,0.003949
1856.481033,0.006466
1856.963235,0.008709
1857.445438,0.008460
1857.927641,0.004913
1858.409844,0.001887
1858.892047,0.001843
1859.374250,0.002900
1859.856453,0.004697
1860.338655,0.007352
1860.820858,0.008252
1861.303061,0.005335
1861.785264,0.001884
1862.267467,0.001285
1862.749670,0.002026
1863.231873,0.003097
1863.714076,0.005355
1864.196278,0.007000
1864.678481,0.005078
1865.160684,0.001753
1865.642887,0.000795
1866.125090,0.001453
1866.607293,0.002176
1867.089496,0.003610
1867.571698,0.005498
1868.053901,0.004930
1868.536104,0.002233
1869.018307,0.001373
1869.500510,0.001808
1869.982713,0.001323
1870.464916,0.001149
1870.947119,0.001987
1871.429321,0.001975
1871.911524,0.000774
1872.393727,0.000252
1872.875930,0.000544
1873.358133,0.000935
1873.840336,0.001609
1874.322539,0.002734
1874.804741,0.004127
1875.286944,0.006214
1875.769147,0.008105
1876.251350,0.006284
1876.733553,0.002127
1877.215756,0.000168
1877.697959,-0.000168
1878.180162,-0.000321
1878.662364,-0.000272
1879.144567,-0.000177
1879.626770,0.000101
1880.108973,0.000378
1880.591176,0.001137
1881.073379,0.002127
1881.555582,0.001796
1882.037784,0.000698
1882.519987,0.000651
1883.002190,0.001286
1883.484393,0.001974
1883.966596,0.004058
1884.448799,0.005861
1884.931002,0.004085
1885.413204,0.001496
1885.895407,0.001535
1886.377610,0.002391
1886.859813,0.003791
1887.342016,0.007306
1887.824219,0.008769
1888.306422,0.005151
1888.788625,0.002327
1889.270827,0.003391
1889.753030,0.004678
1890.235233,0.006798
1890.717436,0.010606
1891.199639,0.009982
1891.681842,0.004726
1892.164045,0.002589
1892.646247,0.003687
1893.128450,0.005140
1893.610653,0.009356
1894.092856,0.012992
1894.575059,0.009540
1895.057262,0.004361
1895.539465,0.003889
1896.021668,0.004953
1896.503870,0.007487
1896.986073,0.012663
1897.468276,0.013031
1897.950479,0.007129
1898.432682,0.003765
1898.914885,0.004450
1899.397088,0.006225
1899.879290,0.010805
1900.361493,0.014276
1900.843696,0.010436
1901.325899,0.005027
1901.808102,0.004091
1902.290305,0.005441
1902.772508,0.008955
1903.254711,0.013514
1903.736913,0.012505
1904.219116,0.007025
1904.701319,0.004374
1905.183522,0.004962
1905.665725,0.007708
1906.147928,0.012357
1906.630131,0.013131
1907.112333,0.008442
1907.594536,0.004831
1908.076739,0.004586
1908.558942,0.006658
1909.041145,0.010790
1909.523348,0.012612
1910.005551,0.009400
1910.487754,0.005541
1910.969956,0.004227
1911.452159,0.005704
1911.934362,0.009530
1912.416565,0.011445
1912.898768,0.008834
1913.380971,0.005421
1913.863174,0.003926
1914.345376,0.004888
1914.827579,0.008242
1915.309782,0.010136
1915.791985,0.008274
1916.274188,0.005605
1916.756391,0.004032
1917.238594,0.004697
1917.720796,0.007977
1918.202999,0.009675
1918.685202,0.007650
1919.167405,0.005216
1919.649608,0.003664
1920.131811,0.004156
1920.614014,0.006787
1921.096217,0.007600
1921.578419,0.005988
1922.060622,0.004563
1922.542825,0.003610
1923.025028,0.004364
1923.507231,0.006474
1923.989434,0.006369
1924.471637,0.004801
1924.953839,0.003639
1925.436042,0.002709
1925.918245,0.003638
1926.400448,0.005305
1926.882651,0.004746
1927.364854,0.003575
1927.847057,0.002825
1928.329260,0.002347
1928.811462,0.003458
1929.293665,0.004278
1929.775868,0.003415
1930.258071,0.002766
1930.740274,0.002212
1931.222477,0.002132
1931.704680,0.003157
1932.186882,0.003149
1932.669085,0.002359
1933.151288,0.002029
1933.633491,0.001612
1934.115694,0.001943
1934.597897,0.002490
1935.080100,0.001997
1935.562303,0.001626
1936.044505,0.001383
1936.526708,0.001250
1937.008911,0.001806
1937.491114,0.001744
1937.973317,0.001262
1938.455520,0.001218
1938.937723,0.001038
1939.419925,0.001213
1939.902128,0.001460
1940.384331,0.001106
1940.866534,0.000944
1941.348737,0.000924
1941.830940,0.001088
1942.313143,0.001611
1942.795346,0.001523
1943.277548,0.000961
1943.759751,0.000602
1944.241954,0.000518
1944.724157,0.000663
1945.206360,0.000619
1945.688563,0.000513
1946.170766,0.000514
1946.652968,0.000412
1947.135171,0.000396
1947.617374,0.000370
1948.099577,0.000262
1948.581780,0.000243
1949.063983,0.000224
1949.546186,0.000219
1950.028388,0.000175
1950.510591,0.000102
1950.992794,0.000147
1951.474997,0.000182
1951.957200,0.000168
1952.439403,0.000144
1952.921606,0.000080
1953.403809,0.000084
1953.886011,0.000169
1954.368214,0.000227
1954.850417,0.000192
1955.332620,0.000087
1955.814823,0.000024
1956.297026,0.000021
1956.779229,0.000043
1957.261431,0.000032
1957.743634,-0.000086
1958.225837,-0.000158
1958.708040,-0.000090
1959.190243,-0.000064
1959.672446,-0.000054
1960.154649,0.000051
1960.636852,0.000122
1961.119054,0.000117
1961.601257,0.000092
1962.083460,0.000046
1962.565663,0.000003
1963.047866,-0.000003
1963.530069,0.000039
1964.012272,0.000039
1964.494474,-0.000022
1964.976677,-0.000040
1965.458880,-0.000003
1965.941083,0.000108
1966.423286,0.000215
1966.905489,0.000221
1967.387692,0.000237
1967.869895,0.000248
1968.352097,0.000177
1968.834300,0.000068
1969.316503,-0.000035
1969.798706,-0.000061
1970.280909,-0.000040
1970.763112,-0.000035
1971.245315,-0.000021
1971.727517,-0.000079
1972.209720,-0.000158
1972.691923,-0.000082
1973.174126,-0.000004
1973.656329,-0.000023
1974.138532,0.000008
1974.620735,0.000046
1975.102938,0.000009
1975.585140,0.000003
1976.067343,0.000061
1976.549546,0.000064
1977.031749,0.000039
1977.513952,0.000066
1977.996155,0.000060
1978.478358,0.000006
1978.960560,-0.000040
1979.442763,-0.000041
1979.924966,-0.000010
1980.407169,-0.000055
1980.889372,-0.000112
1981.371575,-0.000097
1981.853778,-0.000054
1982.335980,0.000017
1982.818183,0.000066
1983.300386,0.000070
1983.782589,0.000054
1984.264792,-0.000009
1984.746995,-0.000068
1985.229198,-0.000055
1985.711401,-0.000047
1986.193603,-0.000074
1986.675806,-0.000033
1987.158009,0.000042
1987.640212,0.000051
1988.122415,0.000061
1988.604618,0.000122
1989.086821,0.000141
1989.569023,0.000069
1990.051226,0.000026
1990.533429,0.000038
1991.015632,0.000069
1991.497835,0.000223
1991.980038,0.000420
1992.462241,0.000378
1992.944444,0.000169
1993.426646,0.000079
1993.908849,0.000065
1994.391052,-0.000010
1994.873255,-0.000079
1995.355458,-0.000085
1995.837661,-0.000053
1996.319864,-0.000048
1996.802066,-0.000035
1997.284269,0.000004
1997.766472,-0.000019
1998.248675,-0.000042
1998.730878,-0.000073
1999.213081,-0.000083
1999.695284,0.000017
2000.177487,0.000027
2000.659689,-0.000001
2001.141892,0.000130
2001.624095,0.000201
2002.106298,0.000109
2002.588501,0.000012
2003.070704,-0.000035
2003.552907,-0.000039
2004.035109,-0.000032
2004.517312,0.000000
2004.999515,0.000054
2005.481718,0.000048
2005.963921,0.000009
2006.446124,-0.000019
2006.928327,-0.000025
2007.410529,0.000021
2007.892732,0.000044
2008.374935,-0.000024
2008.857138,-0.000099
2009.339341,-0.000066
2009.821544,0.000025
2010.303747,0.000055
2010.785950,0.000057
2011.268152,0.000061
2011.750355,0.000043
2012.232558,0.000041
2012.714761,0.000059
2013.196964,0.000017
2013.679167,-0.000084
2014.161370,-0.000125
2014.643572,-0.000059
2015.125775,0.000069
2015.607978,0.000190
2016.090181,0.000212
2016.572384,0.000159
2017.054587,0.000105
2017.536790,0.000041
2018.018993,0.000021
2018.501195,0.000104
2018.983398,0.000138
2019.465601,0.000029
2019.947804,-0.000059
2020.430007,-0.000024
2020.912210,0.000023
2021.394413,-0.000012
2021.876615,-0.000053
2022.358818,-0.000004
2022.841021,0.000050
2023.323224,0.000034
2023.805427,0.000052
2024.287630,0.000092
2024.769833,0.000073
2025.252036,0.000083
2025.734238,0.000089
2026.216441,0.000029
2026.698644,0.000049
2027.180847,0.000139
2027.663050,0.000146
2028.145253,0.000082
2028.627456,0.000034
2029.109658,-0.000003
2029.591861,-0.000009
2030.074064,0.000039
2030.556267,0.000015
2031.038470,0.000002
2031.520673,0.000072
2032.002876,0.000017
2032.485079,-0.000064
2032.967281,-0.000025
2033.449484,0.000024
2033.931687,0.000052
2034.413890,0.000064
2034.896093,0.000051
2035.378296,0.000026
2035.860499,0.000043
2036.342701,0.000061
2036.824904,-0.000005
2037.307107,-0.000014
2037.789310,0.000073
2038.271513,0.000060
2038.753716,0.000009
2039.235919,0.000013
2039.718121,0.000010
2040.200324,0.000070
2040.682527,0.000141
2041.164730,0.000190
2041.646933,0.000248
2042.129136,0.000157
2042.611339,0.000043
2043.093542,0.000023
2043.575744,-0.000006
2044.057947,0.000022
2044.540150,0.000057
2045.022353,0.000047
2045.504556,0.000091
2045.986759,0.000134
2046.468962,0.000074
2046.951164,-0.000002
2047.433367,0.000002
2047.915570,0.000033
2048.397773,0.000065
2048.879976,0.000087
2049.362179,0.000088
2049.844382,0.000095
2050.326585,0.000101
2050.808787,0.000124
2051.290990,0.000152
2051.773193,0.000154
2052.255396,0.000120
2052.737599,0.000060
2053.219802,0.000045
2053.702005,0.000082
2054.184207,0.000085
2054.666410,0.000036
2055.148613,-0.000030
2055.630816,-0.000057
2056.113019,0.000023
2056.595222,0.000104
2057.077425,0.000107
2057.559628,0.000130
2058.041830,0.000143
2058.524033,0.000129
2059.006236,0.000110
2059.488439,0.000113
2059.970642,0.000205
2060.452845,0.000226
2060.935048,0.000116
2061.417250,0.000066
2061.899453,0.000106
2062.381656,0.000114
2062.863859,0.000087
2063.346062,0.000085
2063.828265,0.000102
2064.310468,0.000205
2064.792671,0.000300
2065.274873,0.000172
2065.757076,0.000044
2066.239279,0.000048
2066.721482,0.000002
2067.203685,-0.000002
2067.685888,0.000064
2068.168091,0.000048
2068.650293,0.000042
2069.132496,0.000118
2069.614699,0.000143
2070.096902,0.000062
2070.579105,0.000045
2071.061308,0.000121
2071.543511,0.000139
2072.025713,0.000169
2072.507916,0.000201
2072.990119,0.000170
2073.472322,0.000191
2073.954525,0.000191
2074.436728,0.000120
2074.918931,0.000086
2075.401134,0.000057
2075.883336,0.000053
2076.365539,0.000126
2076.847742,0.000179
2077.329945,0.000204
2077.812148,0.000240
2078.294351,0.000183
2078.776554,0.000073
2079.258756,0.000063
2079.740959,0.000087
2080.223162,0.000087
2080.705365,0.000079
2081.187568,0.000084
2081.669771,0.000203
2082.151974,0.000313
2082.634177,0.000208
2083.116379,0.000069
2083.598582,0.000039
2084.080785,0.000014
2084.562988,0.000035
2085.045191,0.000134
2085.527394,0.000158
2086.009597,0.000186
2086.491799,0.000336
2086.974002,0.000318
2087.456205,0.000142
2087.938408,0.000089
2088.420611,0.000042
2088.902814,0.000042
2089.385017,0.000179
2089.867220,0.000241
2090.349422,0.000247
2090.831625,0.000272
2091.313828,0.000233
2091.796031,0.000141
2092.278234,0.000071
2092.760437,0.000068
2093.242640,0.000077
2093.724842,0.000096
2094.207045,0.000233
2094.689248,0.000408
2095.171451,0.000360
2095.653654,0.000095
2096.135857,-0.000023
2096.618060,0.000079
2097.100262,0.000132
2097.582465,0.000101
2098.064668,0.000102
2098.546871,0.000264
2099.029074,0.000496
2099.511277,0.000436
2099.993480,0.000179
2100.475683,0.000086
2100.957885,0.000102
2101.440088,0.000132
2101.922291,0.000176
2102.404494,0.000213
2102.886697,0.000329
2103.368900,0.000428
2103.851103,0.000314
2104.333305,0.000166
2104.815508,0.000129
2105.297711,0.000119
2105.779914,0.000186
2106.262117,0.000226
2106.744320,0.000219
2107.226523,0.000432
2107.708726,0.000550
2108.190928,0.000322
2108.673131,0.000157
2109.155334,0.000164
2109.637537,0.000203
2110.119740,0.000212
2110.601943,0.000172
2111.084146,0.000291
2111.566348,0.000490
2112.048551,0.000374
2112.530754,0.000109
2113.012957,0.000117
2113.495160,0.000223
2113.977363,0.000208
2114.459566,0.000203
2114.941769,0.000285
2115.423971,0.000481
2115.906174,0.000566
2116.388377,0.000324
2116.870580,0.000042
2117.352783,-0.000043
2117.834986,0.000068
2118.317189,0.000240
2118.799391,0.000296
2119.281594,0.000403
2119.763797,0.000585
2120.246000,0.000488
2120.728203,0.000240
2121.210406,0.000224
2121.692609,0.000277
2122.174812,0.000232
2122.657014,0.000226
2123.139217,0.000304
2123.621420,0.000432
2124.103623,0.000456
2124.585826,0.000335
2125.068029,0.000242
2125.550232,0.000152
2126.032434,0.000100
2126.514637,0.000156
2126.996840,0.000250
2127.479043,0.000404
2127.961246,0.000480
2128.443449,0.000314
2128.925652,0.000081
2129.407854,-0.000001
2129.890057,0.000058
2130.372260,0.000132
2130.854463,0.000220
2131.336666,0.000343
2131.818869,0.000355
2132.301072,0.000201
2132.783275,0.000099
2133.265477,0.000132
2133.747680,0.000131
2134.229883,0.000114
2134.712086,0.000155
2135.194289,0.000224
2135.676492,0.000303
2136.158695,0.000257
2136.640897,0.000143
2137.123100,0.000129
2137.605303,0.000131
2138.087506,0.000139
2138.569709,0.000152
2139.051912,0.000166
2139.534115,0.000185
2140.016318,0.000094
2140.498520,0.000041
2140.980723,0.000068
2141.462926,-0.000008
2141.945129,-0.000073
2142.427332,-0.000065
2142.909535,-0.000030
2143.391738,-0.000007
2143.873940,-0.000076
2144.356143,-0.000080
2144.838346,0.000051
2145.320549,0.000140
2145.802752,0.000156
2146.284955,0.000154
2146.767158,0.000167
2147.249361,0.000171
2147.731563,0.000114
2148.213766,0.000041
2148.695969,0.000030
2149.178172,0.000128
2149.660375,0.000223
2150.142578,0.000183
2150.624781,0.000173
2151.106983,0.000267
2151.589186,0.000284
2152.071389,0.000211
2152.553592,0.000135
2153.035795,0.000114
2153.517998,0.000116
2154.000201,0.000146
2154.482404,0.000321
2154.964606,0.000411
2155.446809,0.000255
2155.929012,0.000157
2156.411215,0.000181
2156.893418,0.000225
2157.375621,0.000247
2157.857824,0.000292
2158.340026,0.000455
2158.822229,0.000473
2159.304432,0.000300
2159.786635,0.000223
2160.268838,0.000216
2160.751041,0.000249
2161.233244,0.000344
2161.715446,0.000460
2162.197649,0.000515
2162.679852,0.000367
2163.162055,0.000208
2163.644258,0.000219
2164.126461,0.000260
2164.608664,0.000248
2165.090867,0.000282
2165.573069,0.000462
2166.055272,0.000516
2166.537475,0.000292
2167.019678,0.000184
2167.501881,0.000258
2167.984084,0.000262
2168.466287,0.000308
2168.948489,0.000496
2169.430692,0.000575
2169.912895,0.000408
2170.395098,0.000192
2170.877301,0.000156
2171.359504,0.000296
2171.841707,0.000424
2172.323910,0.000548
2172.806112,0.000655
2173.288315,0.000485
2173.770518,0.000224
2174.252721,0.000222
2174.734924,0.000357
2175.217127,0.000396
2175.699330,0.000438
2176.181532,0.000654
2176.663735,0.000739
2177.145938,0.000512
2177.628141,0.000323
2178.110344,0.000350
2178.592547,0.000434
2179.074750,0.000475
2179.556953,0.000648
2180.039155,0.000802
2180.521358,0.000585
2181.003561,0.000329
2181.485764,0.000328
2181.967967,0.000368
2182.450170,0.000431
2182.932373,0.000634
2183.414575,0.000746
2183.896778,0.000577
2184.378981,0.000405
2184.861184,0.000392
2185.343387,0.000412
2185.825590,0.000468
2186.307793,0.000650
2186.789995,0.000794
2187.272198,0.000680
2187.754401,0.000548
2188.236604,0.000596
2188.718807,0.000614
2189.201010,0.000591
2189.683213,0.000715
2190.165416,0.000808
2190.647618,0.000676
2191.129821,0.000580
2191.612024,0.000613
2192.094227,0.000617
2192.576430,0.000636
2193.058633,0.000759
2193.540836,0.000861
2194.023038,0.000792
2194.505241,0.000728
2194.987444,0.000744
2195.469647,0.000710
2195.951850,0.000720
2196.434053,0.000828
2196.916256,0.000904
2197.398459,0.000839
2197.880661,0.000734
2198.362864,0.000790
2198.845067,0.000976
2199.327270,0.001083
2199.809473,0.001072
2200.291676,0.001092
2200.773879,0.001082
2201.256081,0.001017
2201.738284,0.001052
2202.220487,0.001090
2202.702690,0.001115
2203.184893,0.001223
2203.667096,0.001232
2204.149299,0.001108
2204.631502,0.001080
2205.113704,0.001139
2205.595907,0.001175
2206.078110,0.001239
2206.560313,0.001270
2207.042516,0.001156
2207.524719,0.001064
2208.006922,0.001159
2208.489124,0.001247
2208.971327,0.001187
2209.453530,0.001173
2209.935733,0.001248
2210.417936,0.001243
2210.900139,0.001160
2211.382342,0.001179
2211.864545,0.001300
2212.346747,0.001323
2212.828950,0.001283
2213.311153,0.001265
2213.793356,0.001208
2214.275559,0.001147
2214.757762,0.001123
2215.239965,0.001121
2215.722167,0.001148
2216.204370,0.001152
2216.686573,0.001095
2217.168776,0.001024
2217.650979,0.000930
2218.133182,0.000835
2218.615385,0.000834
2219.097587,0.000858
2219.579790,0.000813
2220.061993,0.000702
2220.544196,0.000582
2221.026399,0.000572
2221.508602,0.000617
2221.990805,0.000550
2222.473008,0.000468
2222.955210,0.000458
2223.437413,0.000376
2223.919616,0.000286
2224.401819,0.000334
2224.884022,0.000403
2225.366225,0.000460
2225.848428,0.000594
2226.330630,0.000710
2226.812833,0.000713
2227.295036,0.000743
2227.777239,0.000861
2228.259442,0.000960
2228.741645,0.001053
2229.223848,0.001109
2229.706051,0.001114
2230.188253,0.001223
2230.670456,0.001373
2231.152659,0.001400
2231.634862,0.001413
2232.117065,0.001509
2232.599268,0.001562
2233.081471,0.001541
2233.563673,0.001580
2234.045876,0.001631
2234.528079,0.001576
2235.010282,0.001583
2235.492485,0.001686
2235.974688,0.001686
2236.456891,0.001682
2236.939094,0.001745
2237.421296,0.001724
2237.903499,0.001684
2238.385702,0.001696
2238.867905,0.001683
2239.350108,0.001662
2239.832311,0.001667
2240.314514,0.001662
2240.796716,0.001634
2241.278919,0.001551
2241.761122,0.001405
2242.243325,0.001347
2242.725528,0.001394
2243.207731,0.001356
2243.689934,0.001243
2244.172137,0.001206
2244.654339,0.001226
2245.136542,0.001210
2245.618745,0.001152
2246.100948,0.001077
2246.583151,0.001017
2247.065354,0.000945
2247.547557,0.000834
2248.029759,0.000743
2248.511962,0.000725
2248.994165,0.000757
2249.476368,0.000708
2249.958571,0.000612
2250.440774,0.000652
2250.922977,0.000699
2251.405179,0.000637
2251.887382,0.000570
2252.369585,0.000510
2252.851788,0.000432
2253.333991,0.000318
2253.816194,0.000278
2254.298397,0.000342
2254.780600,0.000315
2255.262802,0.000280
2255.745005,0.000358
2256.227208,0.000381
2256.709411,0.000305
2257.191614,0.000204
2257.673817,0.000164
2258.156020,0.000251
2258.638222,0.000349
2259.120425,0.000346
2259.602628,0.000307
2260.084831,0.000335
2260.567034,0.000390
2261.049237,0.000336
2261.531440,0.000224
2262.013643,0.000221
2262.495845,0.000261
2262.978048,0.000206
2263.460251,0.000148
2263.942454,0.000156
2264.424657,0.000154
2264.906860,0.000183
2265.389063,0.000288
2265.871265,0.000294
2266.353468,0.000162
2266.835671,0.000150
2267.317874,0.000240
2267.800077,0.000202
2268.282280,0.000112
2268.764483,0.000073
2269.246686,0.000045
2269.728888,0.000064
2270.211091,0.000088
2270.693294,0.000109
2271.175497,0.000203
2271.657700,0.000251
2272.139903,0.000181
2272.622106,0.000144
2273.104308,0.000226
2273.586511,0.000297
2274.068714,0.000233
2274.550917,0.000203
2275.033120,0.000262
2275.515323,0.000228
2275.997526,0.000204
2276.479729,0.000266
2276.961931,0.000255
2277.444134,0.000253
2277.926337,0.000375
2278.408540,0.000404
2278.890743,0.000263
2279.372946,0.000244
2279.855149,0.000348
2280.337351,0.000305
2280.819554,0.000259
2281.301757,0.000379
2281.783960,0.000481
2282.266163,0.000476
2282.748366,0.000411
2283.230569,0.000340
2283.712771,0.000369
2284.194974,0.000430
2284.677177,0.000358
2285.159380,0.000275
2285.641583,0.000321
2286.123786,0.000395
2286.605989,0.000401
2287.088192,0.000323
2287.570394,0.000240
2288.052597,0.000214
2288.534800,0.000216
2289.017003,0.000229
2289.499206,0.000206
2289.981409,0.000179
2290.463612,0.000175
2290.945814,0.000151
2291.428017,0.000109
2291.910220,0.000072
2292.392423,0.000107
2292.874626,0.000128
2293.356829,0.000107
2293.839032,0.000129
2294.321235,0.000074
2294.803437,0.000018
2295.285640,0.000037
2295.767843,-0.000041
2296.250046,-0.000119
2296.732249,-0.000046
2297.214452,0.000040
2297.696655,0.000008
2298.178857,-0.000017
2298.661060,0.000044
2299.143263,0.000076
2299.625466,0.000032
2300.107669,-0.000083
2300.589872,-0.000203
2301.072075,-0.000204
2301.554278,-0.000131
2302.036480,-0.000136
2302.518683,-0.000228
2303.000886,-0.000230
2303.483089,-0.000064
2303.965292,-0.000017
2304.447495,-0.000146
2304.929698,-0.000201
2305.411900,-0.000056
2305.894103,0.000104
2306.376306,0.000137
2306.858509,0.000055
2307.340712,0.000019
2307.822915,0.000201
2308.305118,0.000342
2308.787320,0.000178
2309.269523,0.000011
2309.751726,0.000158
2310.233929,0.000364
2310.716132,0.000248
2311.198335,0.000017
2311.680538,0.000173
2312.162741,0.000485
2312.644943,0.000372
2313.127146,0.000019
2313.609349,0.000045
2314.091552,0.000381
2314.573755,0.000468
2315.055958,0.000146
2315.538161,-0.000128
2316.020363,0.000125
2316.502566,0.000400
2316.984769,0.000100
2317.466972,-0.000253
2317.949175,0.000027
2318.431378,0.000356
2318.913581,0.000028
2319.395784,-0.000411
2319.877986,-0.000104
2320.360189,0.000276
2320.842392,-0.000045
2321.324595,-0.000502
2321.806798,-0.000204
2322.289001,0.000284
2322.771204,-0.000008
2323.253406,-0.000580
2323.735609,-0.000153
2324.217812,0.000493
2324.700015,0.000067
2325.182218,-0.000655
2325.664421,-0.000217
2326.146624,0.000385
2326.628827,0.000007
2327.111029,-0.000457
2327.593232,0.000079
2328.075435,0.000462
2328.557638,-0.000210
2329.039841,-0.000666
2329.522044,0.000114
2330.004247,0.000487
2330.486449,-0.000210
2330.968652,-0.000501
2331.450855,0.000211
2331.933058,0.000360
2332.415261,-0.000328
2332.897464,-0.000240
2333.379667,0.000608
2333.861870,0.000412
2334.344072,-0.000411
2334.826275,0.000076
2335.308478,0.000745
2335.790681,0.000125
2336.272884,-0.000415
2336.755087,0.000342
2337.237290,0.000591
2337.719492,-0.000202
2338.201695,-0.000155
2338.683898,0.000616
2339.166101,0.000253
2339.648304,-0.000438
2340.130507,0.000158
2340.612710,0.000503
2341.094912,-0.000160
2341.577115,-0.000117
2342.059318,0.000656
2342.541521,0.000518
2343.023724,0.000219
2343.505927,0.000944
2343.988130,0.001158
2344.470333,0.000513
2344.952535,0.000750
2345.434738,0.001442
2345.916941,0.001313
2346.399144,0.001282
2346.881347,0.001884
2347.363550,0.002140
2347.845753,0.002091
2348.327955,0.002306
2348.810158,0.002542
2349.292361,0.002528
2349.774564,0.002298
2350.256767,0.002102
2350.738970,0.002069
2351.221173,0.001672
2351.703376,0.001089
2352.185578,0.001199
2352.667781,0.001181
2353.149984,0.000578
2353.632187,0.000630
2354.114390,0.000653
2354.596593,-0.000035
2355.078796,0.000155
2355.560998,0.000507
2356.043201,-0.000056
2356.525404,0.000055
2357.007607,0.000316
2357.489810,-0.000240
2357.972013,-0.000029
2358.454216,0.000199
2358.936419,-0.000356
2359.418621,-0.000010
2359.900824,0.000206
2360.383027,-0.000278
2360.865230,0.000104
2361.347433,0.000127
2361.829636,-0.000252
2362.311839,0.000233
2362.794041,0.000147
2363.276244,0.000019
2363.758447,0.000406
2364.240650,0.000112
2364.722853,0.000283
2365.205056,0.000519
2365.687259,0.000013
2366.169462,0.000241
2366.651664,0.000301
2367.133867,0.000084
2367.616070,0.000164
2368.098273,0.000084
2368.580476,0.000352
2369.062679,0.000341
2369.544882,0.000134
2370.027084,0.000288
2370.509287,0.000248
2370.991490,0.000280
2371.473693,0.000321
2371.955896,0.000366
2372.438099,0.000436
2372.920302,0.000345
2373.402504,0.000472
2373.884707,0.000575
2374.366910,0.000602
2374.849113,0.000735
2375.331316,0.000775
2375.813519,0.000783
2376.295722,0.000826
2376.777925,0.000908
2377.260127,0.000955
2377.742330,0.000962
2378.224533,0.000958
2378.706736,0.000870
2379.188939,0.000779
2379.671142,0.000777
2380.153345,0.000848
2380.635547,0.000917
2381.117750,0.000930
2381.599953,0.000850
2382.082156,0.000702
2382.564359,0.000614
2383.046562,0.000620
2383.528765,0.000620
2384.010968,0.000541
2384.493170,0.000475
2384.975373,0.000409
2385.457576,0.000254
2385.939779,0.000142
2386.421982,0.000053
2386.904185,-0.000089
2387.386388,-0.000079
2387.868590,-0.000053
2388.350793,-0.000079
2388.832996,-0.000069
2389.315199,-0.000021
2389.797402,-0.000047
2390.279605,-0.000086
2390.761808,-0.000030
2391.244011,0.000002
2391.726213,-0.000067
2392.208416,-0.000061
2392.690619,0.000033
2393.172822,0.000007
2393.655025,-0.000055
2394.137228,-0.000019
2394.619431,-0.000045
2395.101633,-0.000107
2395.583836,-0.000079
2396.066039,-0.000073
2396.548242,-0.000073
2397.030445,-0.000027
2397.512648,-0.000067
2397.994851,-0.000118
2398.477053,-0.000012
2398.959256,0.000098
2399.441459,0.000062
2399.923662,0.000035
2400.405865,0.000052
2400.888068,0.000015
2401.370271,0.000004
2401.852474,0.000049
2402.334676,0.000050
2402.816879,0.000005
2403.299082,-0.000028
2403.781285,-0.000069
2404.263488,-0.000126
2404.745691,-0.000098
2405.227894,-0.000010
2405.710096,-0.000028
2406.192299,-0.000061
2406.674502,0.000057
2407.156705,0.000107
2407.638908,-0.000012
2408.121111,-0.000062
2408.603314,-0.000047
2409.085517,-0.000025
2409.567719,0.000049
2410.049922,0.000014
2410.532125,-0.000078
2411.014328,-0.000011
2411.496531,0.000034
2411.978734,-0.000051
2412.460937,-0.000081
2412.943139,-0.000060
2413.425342,-0.000062
2413.907545,-0.000033
2414.389748,0.000013
2414.871951,0.000019
2415.354154,-0.000005
2415.836357,-0.000028
2416.318560,-0.000023
2416.800762,0.000014
2417.282965,0.000006
2417.765168,-0.000090
2418.247371,-0.000142
2418.729574,-0.000090
2419.211777,-0.000034
2419.693980,0.000003
2420.176182,-0.000002
2420.658385,-0.000058
2421.140588,-0.000060
2421.622791,-0.000050
2422.104994,-0.000050
2422.587197,-0.000004
2423.069400,-0.000023
2423.551603,-0.000028
2424.033805,0.000046
2424.516008,-0.000004
2424.998211,-0.000062
2425.480414,0.000037
2425.962617,0.000154
2426.444820,0.000164
2426.927023,0.000067
2427.409225,0.000021
2427.891428,0.000089
2428.373631,0.000158
2428.855834,0.000164
2429.338037,0.000112
2429.820240,0.000073
2430.302443,0.000066
2430.784645,0.000062
2431.266848,0.000095
2431.749051,0.000136
2432.231254,0.000099
2432.713457,0.000035
2433.195660,0.000070
2433.677863,0.000128
2434.160066,0.000080
2434.642268,0.000002
2435.124471,-0.000015
2435.606674,-0.000032
2436.088877,-0.000090
2436.571080,-0.000071
2437.053283,-0.000036
2437.535486,-0.000060
2438.017688,-0.000011
2438.499891,-0.000014
2438.982094,-0.000082
2439.464297,-0.000033
2439.946500,0.000010
2440.428703,-0.000012
2440.910906,0.000028
2441.393109,0.000122
2441.875311,0.000120
2442.357514,0.000041
2442.839717,0.000053
2443.321920,0.000079
2443.804123,0.000000
2444.286326,-0.000076
2444.768529,-0.000013
2445.250731,0.000055
2445.732934,-0.000016
2446.215137,-0.000016
2446.697340,0.000076
2447.179543,0.000089
2447.661746,0.000075
2448.143949,0.000049
2448.626152,0.000003
2449.108354,0.000010
2449.590557,0.000068
2450.072760,0.000099
2450.554963,0.000087
2451.037166,0.000094
2451.519369,0.000083
2452.001572,0.000083
2452.483774,0.000176
2452.965977,0.000185
2453.448180,0.000077
2453.930383,0.000071
2454.412586,0.000092
2454.894789,0.000048
2455.376992,0.000062
2455.859195,0.000076
2456.341397,0.000036
2456.823600,0.000073
2457.305803,0.000163
2457.788006,0.000182
2458.270209,0.000149
2458.752412,0.000073
2459.234615,-0.000009
2459.716817,0.000056
2460.199020,0.000177
2460.681223,0.000159
2461.163426,0.000093
2461.645629,0.000074
2462.127832,0.000085
2462.610035,0.000084
2463.092237,0.000051
2463.574440,0.000053
2464.056643,0.000068
2464.538846,0.000094
2465.021049,0.000155
2465.503252,0.000168
2465.985455,0.000146
2466.467658,0.000092
2466.949860,0.000026
2467.432063,0.000092
2467.914266,0.000179
2468.396469,0.000130
2468.878672,0.000114
2469.360875,0.000171
2469.843078,0.000140
2470.325280,0.000060
2470.807483,0.000075
2471.289686,0.000201
2471.771889,0.000260
2472.254092,0.000157
2472.736295,0.000112
2473.218498,0.000178
2473.700701,0.000189
2474.182903,0.000195
2474.665106,0.000270
2475.147309,0.000283
2475.629512,0.000201
2476.111715,0.000205
2476.593918,0.000249
2477.076121,0.000153
2477.558323,0.000073
2478.040526,0.000126
2478.522729,0.000167
2479.004932,0.000167
2479.487135,0.000168
2479.969338,0.000150
2480.451541,0.000130
2480.933744,0.000120
2481.415946,0.000145
2481.898149,0.000194
2482.380352,0.000170
2482.862555,0.000166
2483.344758,0.000231
2483.826961,0.000243
2484.309164,0.000244
2484.791366,0.000229
2485.273569,0.000230
2485.755772,0.000287
2486.237975,0.000210
2486.720178,0.000114
2487.202381,0.000156
2487.684584,0.000133
2488.166786,0.000048
2488.648989,0.000050
2489.131192,0.000034
2489.613395,-0.000070
2490.095598,-0.000069
2490.577801,0.000077
2491.060004,0.000165
2491.542207,0.000181
2492.024409,0.000216
2492.506612,0.000253
2492.988815,0.000284
2493.471018,0.000303
2493.953221,0.000256
2494.435424,0.000147
2494.917627,0.000068
2495.399829,0.000100
2495.882032,0.000159
2496.364235,0.000146
2496.846438,0.000167
2497.328641,0.000215
2497.810844,0.000181
2498.293047,0.000144
2498.775250,0.000193
2499.257452,0.000256
2499.739655,0.000265
2500.221858,0.000273
2500.704061,0.000300
2501.186264,0.000265
2501.668467,0.000214
2502.150670,0.000182
2502.632872,0.000135
2503.115075,0.000152
2503.597278,0.000184
2504.079481,0.000119
2504.561684,0.000093
2505.043887,0.000187
2505.526090,0.000234
2506.008293,0.000192
2506.490495,0.000203
2506.972698,0.000231
2507.454901,0.000208
2507.937104,0.000220
2508.419307,0.000250
2508.901510,0.000199
2509.383713,0.000124
2509.865915,0.000159
2510.348118,0.000165
2510.830321,0.000081
2511.312524,0.000129
2511.794727,0.000196
2512.276930,0.000156
2512.759133,0.000154
2513.241336,0.000144
2513.723538,0.000079
2514.205741,0.000067
2514.687944,0.000112
2515.170147,0.000087
2515.652350,0.000056
2516.134553,0.000132
2516.616756,0.000166
2517.098958,0.000139
2517.581161,0.000165
2518.063364,0.000162
2518.545567,0.000073
2519.027770,0.000049
2519.509973,0.000127
2519.992176,0.000098
2520.474378,0.000023
2520.956581,0.000058
2521.438784,0.000030
2521.920987,-0.000053
2522.403190,-0.000006
2522.885393,0.000017
2523.367596,-0.000074
2523.849799,-0.000042
2524.332001,0.000038
2524.814204,-0.000015
2525.296407,0.000002
2525.778610,0.000048
2526.260813,0.000001
2526.743016,0.000032
2527.225219,0.000038
2527.707421,-0.000071
2528.189624,-0.000083
2528.671827,-0.000012
2529.154030,0.000009
2529.636233,-0.000008
2530.118436,-0.000038
2530.600639,-0.000017
2531.082842,0.000108
2531.565044,0.000216
2532.047247,0.000187
2532.529450,0.000133
2533.011653,0.000145
2533.493856,0.000128
2533.976059,0.000088
2534.458262,0.000101
2534.940464,0.000095
2535.422667,0.000018
2535.904870,-0.000058
2536.387073,-0.000046
2536.869276,0.000018
2537.351479,0.000032
2537.833682,0.000034
2538.315885,0.000040
2538.798087,0.000045
2539.280290,0.000060
2539.762493,-0.000001
2540.244696,-0.000100
2540.726899,-0.000115
2541.209102,-0.000071
2541.691305,0.000003
2542.173507,0.000097
2542.655710,0.000101
2543.137913,0.000061
2543.620116,0.000115
2544.102319,0.000151
2544.584522,0.000158
2545.066725,0.000122
2545.548928,-0.000036
2546.031130,-0.000056
2546.513333,0.000055
2546.995536,0.000074
2547.477739,0.000099
2547.959942,0.000105
2548.442145,0.000048
2548.924348,0.000049
2549.406550,0.000101
2549.888753,0.000101
2550.370956,-0.000012
2550.853159,-0.000072
2551.335362,0.000042
2551.817565,0.000117
2552.299768,0.000051
2552.781970,0.000007
2553.264173,0.000060
2553.746376,0.000053
2554.228579,-0.000017
2554.710782,0.000016
2555.192985,0.000046
2555.675188,0.000015
2556.157391,0.000025
2556.639593,0.000073
2557.121796,0.000118
2557.603999,0.000063
2558.086202,-0.000027
2558.568405,-0.000011
2559.050608,0.000015
2559.532811,-0.000017
2560.015013,-0.000071
2560.497216,-0.000132
2560.979419,-0.000170
2561.461622,-0.000126
2561.943825,-0.000026
2562.426028,-0.000032
2562.908231,-0.000104
2563.390434,-0.000111
2563.872636,-0.000081
2564.354839,-0.000025
2564.837042,-0.000010
2565.319245,-0.000026
2565.801448,-0.000003
2566.283651,-0.000004
2566.765854,0.000010
2567.248056,0.000021
2567.730259,-0.000040
2568.212462,-0.000043
2568.694665,0.000007
2569.176868,0.000036
2569.659071,0.000124
2570.141274,0.000241
2570.623477,0.000206
2571.105679,0.000073
2571.587882,-0.000010
2572.070085,-0.000077
2572.552288,-0.000037
2573.034491,0.000040
2573.516694,-0.000018
2573.998897,-0.000008
2574.481099,0.000062
2574.963302,0.000014
2575.445505,-0.000072
2575.927708,-0.000123
2576.409911,-0.000062
2576.892114,0.000062
2577.374317,0.000096
2577.856520,0.000083
2578.338722,0.000074
2578.820925,0.000046
2579.303128,0.000060
2579.785331,0.000103
2580.267534,0.000062
2580.749737,-0.000007
2581.231940,-0.000001
2581.714142,0.000015
2582.196345,0.000035
2582.678548,0.000130
2583.160751,0.000165
2583.642954,0.000038
2584.125157,-0.000045
2584.607360,-0.000015
2585.089562,-0.000000
2585.571765,0.000026
2586.053968,0.000075
2586.536171,0.000059
2587.018374,-0.000007
2587.500577,-0.000033
2587.982780,-0.000015
2588.464983,-0.000004
2588.947185,0.000034
2589.429388,0.000100
2589.911591,0.000088
2590.393794,0.000014
2590.875997,0.000051
2591.358200,0.000093
2591.840403,-0.000072
2592.322605,-0.000147
2592.804808,-0.000009
2593.287011,-0.000001
2593.769214,0.000004
2594.251417,0.000125
2594.733620,0.000056
2595.215823,-0.000109
2595.698026,-0.000130
2596.180228,-0.000113
2596.662431,-0.000131
2597.144634,-0.000084
2597.626837,-0.000007
2598.109040,-0.000065
2598.591243,-0.000166
2599.073446,-0.000125
2599.555648,-0.000024
2600.037851,-0.000031
2600.520054,-0.000089
2601.002257,-0.000043
2601.484460,-0.000004
2601.966663,-0.000064
2602.448866,-0.000087
2602.931069,-0.000030
2603.413271,0.000064
2603.895474,0.000111
2604.377677,0.000099
2604.859880,0.000133
2605.342083,0.000130
2605.824286,0.000024
2606.306489,-0.000045
2606.788691,-0.000053
2607.270894,-0.000107
2607.753097,-0.000159
2608.235300,-0.000089
2608.717503,0.000032
2609.199706,0.000105
2609.681909,0.000143
2610.164111,0.000120
2610.646314,0.000039
2611.128517,-0.000015
2611.610720,-0.000039
2612.092923,-0.000051
2612.575126,-0.000003
2613.057329,0.000102
2613.539532,0.000107
2614.021734,-0.000012
2614.503937,-0.000034
2614.986140,-0.000005
2615.468343,-0.000075
2615.950546,-0.000081
2616.432749,-0.000006
2616.914952,0.000063
2617.397154,0.000135
2617.879357,0.000095
2618.361560,0.000013
2618.843763,0.000001
2619.325966,0.000017
2619.808169,0.000133
2620.290372,0.000185
2620.772575,0.000027
2621.254777,0.000025
2621.736980,0.000186
2622.219183,0.000154
2622.701386,0.000031
2623.183589,-0.000045
2623.665792,-0.000065
2624.147995,0.000022
2624.630197,0.000058
2625.112400,0.000081
2625.594603,0.000226
2626.076806,0.000284
2626.559009,0.000212
2627.041212,0.000152
2627.523415,0.000160
2628.005618,0.000225
2628.487820,0.000223
2628.970023,0.000133
2629.452226,0.000094
2629.934429,0.000145
2630.416632,0.000134
2630.898835,0.000085
2631.381038,0.000150
2631.863240,0.000181
2632.345443,0.000076
2632.827646,-0.000012
2633.309849,0.000053
2633.792052,0.000226
2634.274255,0.000248
2634.756458,0.000163
2635.238661,0.000172
2635.720863,0.000116
2636.203066,0.000049
2636.685269,0.000131
2637.167472,0.000147
2637.649675,0.000103
2638.131878,0.000095
2638.614081,0.000052
2639.096283,0.000069
2639.578486,0.000146
2640.060689,0.000226
2640.542892,0.000278
2641.025095,0.000195
2641.507298,0.000071
2641.989501,0.000048
2642.471703,0.000131
2642.953906,0.000199
2643.436109,0.000137
2643.918312,0.000061
2644.400515,0.000018
2644.882718,0.000038
2645.364921,0.000124
2645.847124,0.000123
2646.329326,0.000112
2646.811529,0.000141
2647.293732,0.000088
2647.775935,0.000023
2648.258138,-0.000000
2648.740341,0.000006
2649.222544,0.000018
2649.704746,-0.000005
2650.186949,-0.000019
2650.669152,-0.000044
2651.151355,-0.000063
2651.633558,-0.000079
2652.115761,-0.000130
2652.597964,-0.000079
2653.080167,-0.000005
2653.562369,-0.000052
2654.044572,-0.000071
2654.526775,-0.000034
2655.008978,-0.000054
2655.491181,-0.000097
2655.973384,-0.000063
2656.455587,-0.000077
2656.937789,-0.000200
2657.419992,-0.000171
2657.902195,-0.000056
2658.384398,-0.000044
2658.866601,-0.000043
2659.348804,-0.000077
2659.831007,-0.000106
2660.313210,-0.000038
2660.795412,0.000017
2661.277615,-0.000005
2661.759818,-0.000031
2662.242021,-0.000017
2662.724224,0.000006
2663.206427,0.000003
2663.688630,-0.000042
2664.170832,-0.000058
2664.653035,-0.000051
2665.135238,-0.000123
2665.617441,-0.000144
2666.099644,-0.000079
2666.581847,-0.000098
2667.064050,-0.000132
2667.546253,-0.000102
2668.028455,-0.000132
2668.510658,-0.000167
2668.992861,-0.000058
2669.475064,0.000013
2669.957267,-0.000101
2670.439470,-0.000202
2670.921673,-0.000169
2671.403875,-0.000105
2671.886078,-0.000098
2672.368281,-0.000137
2672.850484,-0.000171
2673.332687,-0.000147
2673.814890,-0.000089
2674.297093,-0.000077
2674.779295,-0.000031
2675.261498,0.000023
2675.743701,-0.000062
2676.225904,-0.000117
2676.708107,-0.000073
2677.190310,-0.000088
2677.672513,-0.000103
2678.154716,-0.000075
2678.636918,-0.000040
2679.119121,-0.000033
2679.601324,-0.000057
2680.083527,-0.000000
2680.565730,0.000013
2681.047933,-0.000103
2681.530136,-0.000143
2682.012338,-0.000095
2682.494541,-0.000023
2682.976744,0.000031
2683.458947,0.000002
2683.941150,-0.000030
2684.423353,-0.000067
2684.905556,-0.000129
2685.387759,-0.000127
2685.869961,-0.000063
2686.352164,0.000010
2686.834367,0.000014
2687.316570,-0.000061
2687.798773,-0.000129
2688.280976,-0.000145
2688.763179,-0.000070
2689.245381,0.000001
2689.727584,-0.000062
2690.209787,-0.000177
2690.691990,-0.000226
2691.174193,-0.000174
2691.656396,-0.000135
2692.138599,-0.000120
2692.620802,-0.000025
2693.103004,-0.000026
2693.585207,-0.000105
2694.067410,-0.000096
2694.549613,-0.000125
2695.031816,-0.000183
2695.514019,-0.000210
2695.996222,-0.000248
2696.478424,-0.000220
2696.960627,-0.000123
2697.442830,-0.000009
2697.925033,0.000076
2698.407236,0.000079
2698.889439,0.000058
2699.371642,0.000026
2699.853844,-0.000038
2700.336047,-0.000111
2700.818250,-0.000184
2701.300453,-0.000164
2701.782656,-0.000096
2702.264859,-0.000097
2702.747062,-0.000094
2703.229265,-0.000098
2703.711467,-0.000081
2704.193670,-0.000026
2704.675873,-0.000037
2705.158076,0.000021
2705.640279,0.000098
2706.122482,0.000024
2706.604685,-0.000032
2707.086887,-0.000036
2707.569090,-0.000036
2708.051293,0.000025
2708.533496,0.000016
2709.015699,-0.000069
2709.497902,-0.000063
2709.980105,-0.000029
2710.462308,-0.000074
2710.944510,-0.000090
2711.426713,-0.000024
2711.908916,-0.000010
2712.391119,-0.000028
2712.873322,-0.000007
2713.355525,-0.000070
2713.837728,-0.000167
2714.319930,-0.000123
2714.802133,-0.000018
2715.284336,-0.000041
2715.766539,-0.000117
2716.248742,-0.000013
2716.730945,0.000108
2717.213148,-0.000012
2717.695351,-0.000141
2718.177553,-0.000089
2718.659756,-0.000024
2719.141959,0.000008
2719.624162,0.000064
2720.106365,0.000082
2720.588568,0.000092
2721.070771,0.000076
2721.552973,-0.000031
2722.035176,-0.000072
2722.517379,-0.000022
2722.999582,0.000006
2723.481785,-0.000017
2723.963988,-0.000065
2724.446191,-0.000041
2724.928394,0.000035
2725.410596,0.000012
2725.892799,-0.000128
2726.375002,-0.000172
2726.857205,-0.000044
2727.339408,0.000027
2727.821611,0.000005
2728.303814,0.000001
2728.786016,-0.000003
2729.268219,-0.000001
2729.750422,-0.000031
2730.232625,-0.000072
2730.714828,0.000023
2731.197031,0.000137
2731.679234,0.000084
2732.161436,-0.000013
2732.643639,-0.000070
2733.125842,-0.000079
2733.608045,-0.000012
2734.090248,0.000016
2734.572451,0.000017
2735.054654,0.000039
2735.536857,0.000003
2736.019059,0.000015
2736.501262,0.000072
2736.983465,0.000014
2737.465668,-0.000089
2737.947871,-0.000134
2738.430074,-0.000017
2738.912277,0.000182
2739.394479,0.000094
2739.876682,-0.000119
2740.358885,-0.000053
2740.841088,0.000091
2741.323291,0.000104
2741.805494,0.000116
2742.287697,0.000101
2742.769900,-0.000034
2743.252102,-0.000104
2743.734305,0.000003
2744.216508,0.000087
2744.698711,0.000073
2745.180914,0.000068
2745.663117,0.000007
2746.145320,-0.000117
2746.627522,-0.000067
2747.109725,0.000026
2747.591928,-0.000067
2748.074131,-0.000054
2748.556334,0.000072
2749.038537,0.000009
2749.520740,-0.000078
2750.002943,-0.000065
2750.485145,-0.000130
2750.967348,-0.000216
2751.449551,-0.000159
2751.931754,-0.000118
2752.413957,-0.000142
2752.896160,-0.000096
2753.378363,-0.000084
2753.860565,-0.000029
2754.342768,0.000064
2754.824971,0.000010
2755.307174,0.000013
2755.789377,0.000026
2756.271580,-0.000012
2756.753783,0.000092
2757.235986,0.000078
2757.718188,-0.000035
2758.200391,0.000040
2758.682594,0.000101
2759.164797,0.000062
2759.647000,0.000071
2760.129203,0.000093
2760.611406,0.000006
2761.093608,-0.000079
2761.575811,0.000005
2762.058014,0.000105
2762.540217,0.000049
2763.022420,-0.000078
2763.504623,-0.000068
2763.986826,0.000118
2764.469028,0.000238
2764.951231,0.000176
2765.433434,0.000099
2765.915637,0.000104
2766.397840,0.000076
2766.880043,0.000035
2767.362246,0.000123
2767.844449,0.000174
2768.326651,0.000077
2768.808854,0.000016
2769.291057,0.000018
2769.773260,-0.000014
2770.255463,0.000010
2770.737666,0.000095
2771.219869,0.000038
2771.702071,-0.000078
2772.184274,0.000008
2772.666477,0.000124
2773.148680,0.000073
2773.630883,-0.000013
2774.113086,-0.000083
2774.595289,-0.000113
2775.077492,-0.000068
2775.559694,-0.000019
2776.041897,-0.000005
2776.524100,-0.000026
2777.006303,-0.000002
2777.488506,0.000057
2777.970709,0.000073
2778.452912,0.000141
2778.935114,0.000139
2779.417317,0.000011
2779.899520,0.000032
2780.381723,0.000097
2780.863926,-0.000003
2781.346129,-0.000100
2781.828332,-0.000077
2782.310535,0.000014
2782.792737,0.000132
2783.274940,0.000185
2783.757143,0.000046
2784.239346,-0.000142
2784.721549,-0.000151
2785.203752,-0.000045
2785.685955,0.000020
2786.168157,0.000041
2786.650360,0.000106
2787.132563,0.000131
2787.614766,0.000081
2788.096969,0.000114
2788.579172,0.000103
2789.061375,0.000024
2789.543577,0.000101
2790.025780,0.000163
2790.507983,0.000098
2790.990186,0.000098
2791.472389,0.000135
2791.954592,0.000137
2792.436795,0.000097
2792.918998,0.000045
2793.401200,0.000094
2793.883403,0.000162
2794.365606,0.000168
2794.847809,0.000155
2795.330012,0.000161
2795.812215,0.000230
2796.294418,0.000261
2796.776620,0.000218
2797.258823,0.000163
2797.741026,0.000117
2798.223229,0.000114
2798.705432,0.000071
2799.187635,0.000043
2799.669838,0.000045
2800.152041,-0.000056
2800.634243,-0.000074
2801.116446,0.000073
2801.598649,0.000137
2802.080852,0.000072
2802.563055,0.000051
2803.045258,0.000135
2803.527461,0.000205
2804.009663,0.000161
2804.491866,0.000052
2804.974069,-0.000049
2805.456272,-0.000093
2805.938475,-0.000026
2806.420678,0.000052
2806.902881,0.000035
2807.385084,0.000003
2807.867286,-0.000035
2808.349489,-0.000054
2808.831692,-0.000004
2809.313895,0.000060
2809.796098,0.000156
2810.278301,0.000179
2810.760504,0.000055
2811.242706,0.000055
2811.724909,0.000169
2812.207112,0.000162
2812.689315,0.000131
2813.171518,0.000153
2813.653721,0.000247
2814.135924,0.000269
2814.618127,0.000050
2815.100329,-0.000011
2815.582532,0.000124
2816.064735,0.000077
2816.546938,0.000058
2817.029141,0.000164
2817.511344,0.000217
2817.993547,0.000272
2818.475749,0.000239
2818.957952,0.000082
2819.440155,0.000040
2819.922358,0.000125
2820.404561,0.000170
2820.886764,0.000162
2821.368967,0.000181
2821.851169,0.000184
2822.333372,0.000114
2822.815575,0.000123
2823.297778,0.000190
2823.779981,0.000198
2824.262184,0.000212
2824.744387,0.000161
2825.226590,0.000112
2825.708792,0.000151
2826.190995,0.000173
2826.673198,0.000213
2827.155401,0.000168
2827.637604,0.000072
2828.119807,0.000133
2828.602010,0.000197
2829.084212,0.000206
2829.566415,0.000257
2830.048618,0.000221
2830.530821,0.000106
2831.013024,0.000150
2831.495227,0.000261
2831.977430,0.000214
2832.459633,0.000154
2832.941835,0.000215
2833.424038,0.000293
2833.906241,0.000323
2834.388444,0.000330
2834.870647,0.000298
2835.352850,0.000201
2835.835053,0.000182
2836.317255,0.000226
2836.799458,0.000204
2837.281661,0.000278
2837.763864,0.000461
2838.246067,0.000527
2838.728270,0.000507
2839.210473,0.000520
2839.692676,0.000493
2840.174878,0.000389
2840.657081,0.000380
2841.139284,0.000506
2841.621487,0.000546
2842.103690,0.000454
2842.585893,0.000424
2843.068096,0.000506
2843.550298,0.000553
2844.032501,0.000514
2844.514704,0.000512
2844.996907,0.000597
2845.479110,0.000663
2845.961313,0.000632
2846.443516,0.000545
2846.925719,0.000548
2847.407921,0.000725
2847.890124,0.000844
2848.372327,0.000794
2848.854530,0.000808
2849.336733,0.000858
2849.818936,0.000810
2850.301139,0.000825
2850.783341,0.000931
2851.265544,0.000935
2851.747747,0.000926
2852.229950,0.001091
2852.712153,0.001217
2853.194356,0.001154
2853.676559,0.001133
2854.158761,0.001184
2854.640964,0.001236
2855.123167,0.001440
2855.605370,0.001573
2856.087573,0.001404
2856.569776,0.001367
2857.051979,0.001500
2857.534182,0.001569
2858.016384,0.001768
2858.498587,0.001972
2858.980790,0.002082
2859.462993,0.002201
2859.945196,0.002204
2860.427399,0.002313
2860.909602,0.002581
2861.391804,0.002715
2861.874007,0.002874
2862.356210,0.003025
2862.838413,0.003163
2863.320616,0.003489
2863.802819,0.003611
2864.285022,0.003569
2864.767225,0.003657
2865.249427,0.003813
2865.731630,0.004173
2866.213833,0.004540
2866.696036,0.004790
2867.178239,0.004874
2867.660442,0.004845
2868.142645,0.005130
2868.624847,0.005459
2869.107050,0.005709
2869.589253,0.006003
2870.071456,0.006226
2870.553659,0.006602
2871.035862,0.006962
2871.518065,0.007067
2872.000268,0.007016
2872.482470,0.007167
2872.964673,0.007726
2873.446876,0.008261
2873.929079,0.008648
2874.411282,0.008948
2874.893485,0.009129
2875.375688,0.009410
2875.857890,0.009861
2876.340093,0.010169
2876.822296,0.010099
2877.304499,0.010176
2877.786702,0.010789
2878.268905,0.011410
2878.751108,0.011615
2879.233311,0.011608
2879.715513,0.011776
2880.197716,0.012405
2880.679919,0.013165
2881.162122,0.013310
2881.644325,0.013235
2882.126528,0.013678
2882.608731,0.014364
2883.090933,0.014701
2883.573136,0.014504
2884.055339,0.014560
2884.537542,0.015319
2885.019745,0.015967
2885.501948,0.015917
2885.984151,0.015613
2886.466353,0.015855
2886.948556,0.016416
2887.430759,0.016471
2887.912962,0.016102
2888.395165,0.016086
2888.877368,0.016603
2889.359571,0.016820
2889.841774,0.016517
2890.323976,0.016439
2890.806179,0.016799
2891.288382,0.017136
2891.770585,0.016881
2892.252788,0.016319
2892.734991,0.016470
2893.217194,0.017004
2893.699396,0.016767
2894.181599,0.016079
2894.663802,0.015851
2895.146005,0.015994
2895.628208,0.015859
2896.110411,0.015408
2896.592614,0.015188
2897.074817,0.015090
2897.557019,0.014600
2898.039222,0.014041
2898.521425,0.014133
2899.003628,0.014312
2899.485831,0.013601
2899.968034,0.012785
2900.450237,0.012873
2900.932439,0.013042
2901.414642,0.012262
2901.896845,0.011604
2902.379048,0.011828
2902.861251,0.011532
2903.343454,0.010746
2903.825657,0.010320
2904.307860,0.009806
2904.790062,0.009228
2905.272265,0.008484
2905.754468,0.007454
2906.236671,0.006674
2906.718874,0.006277
2907.201077,0.006600
2907.683280,0.007772
2908.165482,0.009292
2908.647685,0.010941
2909.129888,0.012421
2909.612091,0.013732
2910.094294,0.015257
2910.576497,0.016646
2911.058700,0.017525
2911.540902,0.018641
2912.023105,0.020258
2912.505308,0.021100
2912.987511,0.021563
2913.469714,0.022952
2913.951917,0.023841
2914.434120,0.024118
2914.916323,0.025321
2915.398525,0.025851
2915.880728,0.025596
2916.362931,0.026486
2916.845134,0.026708
2917.327337,0.026442
2917.809540,0.027299
2918.291743,0.026816
2918.773945,0.026205
2919.256148,0.026590
2919.738351,0.025672
2920.220554,0.025274
2920.702757,0.025141
2921.184960,0.024194
2921.667163,0.023882
2922.149366,0.023003
2922.631568,0.021983
2923.113771,0.021304
2923.595974,0.020184
2924.078177,0.019395
2924.560380,0.018435
2925.042583,0.017295
2925.524786,0.016317
2926.006988,0.015169
2926.489191,0.014120
2926.971394,0.013144
2927.453597,0.012183
2927.935800,0.011062
2928.418003,0.009929
2928.900206,0.009010
2929.382409,0.008087
2929.864611,0.007265
2930.346814,0.006428
2930.829017,0.005482
2931.311220,0.004714
2931.793423,0.004211
2932.275626,0.003655
2932.757829,0.002995
2933.240031,0.002542
2933.722234,0.002091
2934.204437,0.001613
2934.686640,0.001345
2935.168843,0.001133
2935.651046,0.000898
2936.133249,0.000700
2936.615452,0.000551
2937.097654,0.000409
2937.579857,0.000257
2938.062060,0.000196
2938.544263,0.000161
2939.026466,0.000107
2939.508669,0.000220
2939.990872,0.000344
2940.473074,0.000312
2940.955277,0.000316
2941.437480,0.000267
2941.919683,0.000156
2942.401886,0.000163
2942.884089,0.000220
2943.366292,0.000259
2943.848494,0.000272
2944.330697,0.000282
2944.812900,0.000262
2945.295103,0.000179
2945.777306,0.000111
2946.259509,0.000065
2946.741712,0.000016
2947.223915,0.000094
2947.706117,0.000266
2948.188320,0.000175
2948.670523,-0.000037
2949.152726,0.000074
2949.634929,0.000284
2950.117132,0.000299
2950.599335,0.000277
2951.081537,0.000331
2951.563740,0.000382
2952.045943,0.000337
2952.528146,0.000319
2953.010349,0.000413
2953.492552,0.000373
2953.974755,0.000229
2954.456958,0.000220
2954.939160,0.000267
2955.421363,0.000319
2955.903566,0.000387
2956.385769,0.000468
2956.867972,0.000495
2957.350175,0.000401
2957.832378,0.000376
2958.314580,0.000389
2958.796783,0.000408
2959.278986,0.000528
2959.761189,0.000471
2960.243392,0.000331
2960.725595,0.000411
2961.207798,0.000439
2961.690001,0.000366
2962.172203,0.000420
2962.654406,0.000514
2963.136609,0.000561
2963.618812,0.000548
2964.101015,0.000445
2964.583218,0.000447
2965.065421,0.000650
2965.547623,0.000766
2966.029826,0.000641
2966.512029,0.000503
2966.994232,0.000437
2967.476435,0.000425
2967.958638,0.000505
2968.440841,0.000504
2968.923044,0.000439
2969.405246,0.000417
2969.887449,0.000295
2970.369652,0.000274
2970.851855,0.000447
2971.334058,0.000472
2971.816261,0.000413
2972.298464,0.000469
2972.780666,0.000531
2973.262869,0.000606
2973.745072,0.000689
2974.227275,0.000648
2974.709478,0.000516
2975.191681,0.000366
2975.673884,0.000311
2976.156086,0.000433
2976.638289,0.000528
2977.120492,0.000451
2977.602695,0.000341
2978.084898,0.000392
2978.567101,0.000526
2979.049304,0.000495
2979.531507,0.000372
2980.013709,0.000317
2980.495912,0.000299
2980.978115,0.000307
2981.460318,0.000359
2981.942521,0.000375
2982.424724,0.000357
2982.906927,0.000410
2983.389129,0.000444
2983.871332,0.000388
2984.353535,0.000339
2984.835738,0.000333
2985.317941,0.000318
2985.800144,0.000271
2986.282347,0.000257
2986.764550,0.000203
2987.246752,0.000205
2987.728955,0.000371
2988.211158,0.000396
2988.693361,0.000349
2989.175564,0.000367
2989.657767,0.000278
2990.139970,0.000263
2990.622172,0.000337
2991.104375,0.000273
2991.586578,0.000243
2992.068781,0.000363
2992.550984,0.000361
2993.033187,0.000205
2993.515390,0.000200
2993.997593,0.000286
2994.479795,0.000253
2994.961998,0.000195
2995.444201,0.000206
2995.926404,0.000247
2996.408607,0.000236
2996.890810,0.000271
2997.373013,0.000364
2997.855215,0.000250
2998.337418,0.000160
2998.819621,0.000285
2999.301824,0.000291
2999.784027,0.000265
3000.266230,0.000292
3000.748433,0.000171
3001.230635,0.000051
3001.712838,0.000071
3002.195041,0.000198
3002.677244,0.000334
3003.159447,0.000297
3003.641650,0.000099
3004.123853,-0.000013
3004.606056,0.000100
3005.088258,0.000223
3005.570461,0.000240
3006.052664,0.000199
3006.534867,0.000147
3007.017070,0.000240
3007.499273,0.000305
3007.981476,0.000215
3008.463678,0.000171
3008.945881,0.000090
3009.428084,0.000095
3009.910287,0.000246
3010.392490,0.000169
3010.874693,0.000054
3011.356896,0.000121
3011.839099,0.000137
3012.321301,0.000144
3012.803504,0.000148
3013.285707,0.000082
3013.767910,0.000094
3014.250113,0.000143
3014.732316,0.000173
3015.214519,0.000258
3015.696721,0.000286
3016.178924,0.000290
3016.661127,0.000387
3017.143330,0.000359
3017.625533,0.000236
3018.107736,0.000251
3018.589939,0.000296
3019.072142,0.000286
3019.554344,0.000251
3020.036547,0.000190
3020.518750,0.000164
3021.000953,0.000186
3021.483156,0.000241
3021.965359,0.000303
3022.447562,0.000303
3022.929764,0.000316
3023.411967,0.000386
3023.894170,0.000366
3024.376373,0.000270
3024.858576,0.000240
3025.340779,0.000268
3025.822982,0.000333
3026.305185,0.000342
3026.787387,0.000246
3027.269590,0.000247
3027.751793,0.000324
3028.233996,0.000318
3028.716199,0.000333
3029.198402,0.000433
3029.680605,0.000483
3030.162807,0.000398
3030.645010,0.000218
3031.127213,0.000060
3031.609416,0.000049
3032.091619,0.000157
3032.573822,0.000267
3033.056025,0.000236
3033.538227,0.000076
3034.020430,0.000040
3034.502633,0.000106
3034.984836,0.000150
3035.467039,0.000190
3035.949242,0.000135
3036.431445,0.000101
3036.913648,0.000183
3037.395850,0.000161
3037.878053,0.000073
3038.360256,0.000117
3038.842459,0.000151
3039.324662,0.000082
3039.806865,0.000135
3040.289068,0.000220
3040.771270,0.000147
3041.253473,0.000051
3041.735676,-0.000054
3042.217879,-0.000108
3042.700082,0.000005
3043.182285,0.000156
3043.664488,0.000198
3044.146691,0.000136
3044.628893,0.000163
3045.111096,0.000244
3045.593299,0.000162
3046.075502,0.000039
3046.557705,0.000012
3047.039908,0.000029
3047.522111,0.000038
3048.004313,0.000068
3048.486516,0.000097
3048.968719,-0.000028
3049.450922,-0.000117
3049.933125,0.000013
3050.415328,0.000131
3050.897531,0.000176
3051.379734,0.000120
3051.861936,-0.000049
3052.344139,-0.000084
3052.826342,-0.000069
3053.308545,-0.000129
3053.790748,-0.000075
3054.272951,-0.000008
3054.755154,-0.000081
3055.237356,-0.000135
3055.719559,-0.000158
3056.201762,-0.000188
3056.683965,-0.000118
3057.166168,-0.000089
3057.648371,-0.000168
3058.130574,-0.000101
3058.612777,0.000002
3059.094979,-0.000096
3059.577182,-0.000172
3060.059385,-0.000089
3060.541588,-0.000071
3061.023791,-0.000178
3061.505994,-0.000124
3061.988197,0.000106
3062.470399,0.000128
3062.952602,-0.000105
3063.434805,-0.000277
3063.917008,-0.000202
3064.399211,-0.000048
3064.881414,-0.000015
3065.363617,-0.000016
3065.845819,-0.000014
3066.328022,-0.000025
3066.810225,-0.000031
3067.292428,-0.000072
3067.774631,-0.000102
3068.256834,-0.000087
3068.739037,-0.000028
3069.221240,0.000016
3069.703442,-0.000012
3070.185645,0.000013
3070.667848,0.000097
3071.150051,0.000071
3071.632254,-0.000056
3072.114457,-0.000115
3072.596660,-0.000135
3073.078862,-0.000179
3073.561065,-0.000105
3074.043268,0.000024
3074.525471,0.000021
3075.007674,-0.000053
3075.489877,-0.000090
3075.972080,-0.000072
3076.454283,-0.000001
3076.936485,0.000000
3077.418688,-0.000128
3077.900891,-0.000100
3078.383094,0.000020
3078.865297,-0.000083
3079.347500,-0.000145
3079.829703,-0.000032
3080.311905,0.000026
3080.794108,0.000041
3081.276311,0.000028
3081.758514,-0.000096
3082.240717,-0.000238
3082.722920,-0.000254
3083.205123,-0.000186
3083.687326,-0.000087
3084.169528,-0.000040
3084.651731,-0.000111
3085.133934,-0.000097
3085.616137,-0.000066
3086.098340,-0.000184
3086.580543,-0.000173
3087.062746,-0.000052
3087.544948,-0.000021
3088.027151,0.000020
3088.509354,0.000014
3088.991557,-0.000044
3089.473760,0.000004
3089.955963,0.000004
3090.438166,-0.000123
3090.920368,-0.000112
3091.402571,-0.000004
3091.884774,-0.000053
3092.366977,-0.000150
3092.849180,-0.000198
3093.331383,-0.000310
3093.813586,-0.000317
3094.295789,-0.000158
3094.777991,-0.000121
3095.260194,-0.000079
3095.742397,0.000102
3096.224600,0.000111
3096.706803,-0.000005
3097.189006,-0.000050
3097.671209,-0.000110
3098.153411,-0.000169
3098.635614,-0.000152
3099.117817,-0.000078
3099.600020,0.000038
3100.082223,0.000185
3100.564426,0.000233
3101.046629,0.000092
3101.528832,-0.000059
3102.011034,-0.000061
3102.493237,0.000028
3102.975440,0.000056
3103.457643,-0.000017
3103.939846,-0.000067
3104.422049,-0.000078
3104.904252,-0.000140
3105.386454,-0.000236
3105.868657,-0.000231
3106.350860,-0.000057
3106.833063,0.000062
3107.315266,0.000012
3107.797469,0.000154
3108.279672,0.000378
3108.761875,0.000183
3109.244077,-0.000058
3109.726280,0.000003
3110.208483,0.000080
3110.690686,0.000175
3111.172889,0.000165
3111.655092,-0.000020
3112.137295,-0.000006
3112.619497,0.000106
3113.101700,0.000118
3113.583903,0.000185
3114.066106,0.000160
3114.548309,0.000041
3115.030512,0.000109
3115.512715,0.000156
3115.994918,0.000147
3116.477120,0.000260
3116.959323,0.000142
3117.441526,-0.000066
3117.923729,-0.000027
3118.405932,0.000019
3118.888135,0.000079
3119.370338,0.000118
3119.852540,0.000054
3120.334743,0.000036
3120.816946,0.000023
3121.299149,0.000026
3121.781352,0.000066
3122.263555,0.000056
3122.745758,-0.000004
3123.227960,-0.000036
3123.710163,-0.000018
3124.192366,-0.000037
3124.674569,0.000057
3125.156772,0.000236
3125.638975,0.000163
3126.121178,0.000049
3126.603381,0.000072
3127.085583,-0.000001
3127.567786,-0.000112
3128.049989,-0.000128
3128.532192,-0.000017
3129.014395,0.000118
3129.496598,0.000114
3129.978801,0.000077
3130.461003,-0.000007
3130.943206,-0.000092
3131.425409,0.000013
3131.907612,0.000095
3132.389815,0.000050
3132.872018,-0.000035
3133.354221,-0.000091
3133.836424,-0.000022
3134.318626,-0.000013
3134.800829,-0.000125
3135.283032,-0.000206
3135.765235,-0.000206
3136.247438,-0.000160
3136.729641,-0.000153
3137.211844,-0.000122
3137.694046,-0.000167
3138.176249,-0.000283
3138.658452,-0.000233
3139.140655,-0.000232
3139.622858,-0.000285
3140.105061,-0.000153
3140.587264,0.000013
3141.069467,0.000038
3141.551669,-0.000046
3142.033872,-0.000031
3142.516075,0.000003
3142.998278,-0.000066
3143.480481,-0.000057
3143.962684,-0.000112
3144.444887,-0.000191
3144.927089,-0.000099
3145.409292,-0.000041
3145.891495,-0.000085
3146.373698,-0.000167
3146.855901,-0.000209
3147.338104,-0.000180
3147.820307,-0.000205
3148.302510,-0.000169
3148.784712,-0.000016
3149.266915,0.000018
3149.749118,-0.000015
3150.231321,0.000076
3150.713524,0.000137
3151.195727,0.000099
3151.677930,0.000048
3152.160132,-0.000075
3152.642335,-0.000128
3153.124538,-0.000061
3153.606741,-0.000174
3154.088944,-0.000417
3154.571147,-0.000428
3155.053350,-0.000181
3155.535552,-0.000026
3156.017755,-0.000090
3156.499958,-0.000122
3156.982161,-0.000064
3157.464364,-0.000019
3157.946567,0.000062
3158.428770,0.000113
3158.910973,-0.000032
3159.393175,-0.000159
3159.875378,-0.000042
3160.357581,0.000050
3160.839784,-0.000002
3161.321987,-0.000064
3161.804190,-0.000044
3162.286393,0.000163
3162.768595,0.000260
3163.250798,0.000092
3163.733001,0.000008
3164.215204,-0.000006
3164.697407,-0.000081
3165.179610,-0.000150
3165.661813,-0.000165
3166.144016,-0.000071
3166.626218,0.000001
3167.108421,0.000014
3167.590624,0.000052
3168.072827,0.000010
3168.555030,-0.000019
3169.037233,0.000069
3169.519436,0.000059
3170.001638,-0.000056
3170.483841,-0.000015
3170.966044,0.000117
3171.448247,0.000058
3171.930450,-0.000016
3172.412653,0.000139
3172.894856,0.000233
3173.377059,0.000167
3173.859261,0.000171
3174.341464,0.000170
3174.823667,0.000115
3175.305870,0.000082
3175.788073,-0.000014
3176.270276,-0.000070
3176.752479,0.000077
3177.234681,0.000241
3177.716884,0.000226
3178.199087,0.000113
3178.681290,0.000093
3179.163493,0.000118
3179.645696,0.000032
3180.127899,0.000040
3180.610102,0.000196
3181.092304,0.000238
3181.574507,0.000238
3182.056710,0.000193
3182.538913,0.000082
3183.021116,0.000186
3183.503319,0.000332
3183.985522,0.000306
3184.467724,0.000313
3184.949927,0.000370
3185.432130,0.000329
3185.914333,0.000168
3186.396536,0.000130
3186.878739,0.000302
3187.360942,0.000310
3187.843144,0.000129
3188.325347,0.000116
3188.807550,0.000234
3189.289753,0.000201
3189.771956,0.000089
3190.254159,0.000127
3190.736362,0.000232
3191.218565,0.000220
3191.700767,0.000143
3192.182970,0.000149
3192.665173,0.000192
3193.147376,0.000235
3193.629579,0.000271
3194.111782,0.000145
3194.593985,0.000016
3195.076187,0.000045
3195.558390,0.000083
3196.040593,0.000108
3196.522796,0.000119
3197.004999,0.000176
3197.487202,0.000295
3197.969405,0.000285
3198.451608,0.000262
3198.933810,0.000411
3199.416013,0.000511
3199.898216,0.000400
3200.380419,0.000285
3200.862622,0.000311
3201.344825,0.000382
3201.827028,0.000427
3202.309230,0.000375
3202.791433,0.000320
3203.273636,0.000429
3203.755839,0.000466
3204.238042,0.000320
3204.720245,0.000256
3205.202448,0.000273
3205.684651,0.000278
3206.166853,0.000328
3206.649056,0.000361
3207.131259,0.000333
3207.613462,0.000380
3208.095665,0.000425
3208.577868,0.000299
3209.060071,0.000226
3209.542273,0.000277
3210.024476,0.000269
3210.506679,0.000209
3210.988882,0.000120
3211.471085,0.000130
3211.953288,0.000247
3212.435491,0.000276
3212.917693,0.000294
3213.399896,0.000338
3213.882099,0.000395
3214.364302,0.000507
3214.846505,0.000504
3215.328708,0.000449
3215.810911,0.000495
3216.293114,0.000467
3216.775316,0.000365
3217.257519,0.000316
3217.739722,0.000314
3218.221925,0.000373
3218.704128,0.000491
3219.186331,0.000593
3219.668534,0.000488
3220.150736,0.000247
3220.632939,0.000190
3221.115142,0.000198
3221.597345,0.000210
3222.079548,0.000359
3222.561751,0.000344
3223.043954,0.000166
3223.526157,0.000214
3224.008359,0.000339
3224.490562,0.000345
3224.972765,0.000362
3225.454968,0.000371
3225.937171,0.000328
3226.419374,0.000280
3226.901577,0.000376
3227.383779,0.000557
3227.865982,0.000511
3228.348185,0.000365
3228.830388,0.000324
3229.312591,0.000282
3229.794794,0.000231
3230.276997,0.000283
3230.759200,0.000401
3231.241402,0.000336
3231.723605,0.000183
3232.205808,0.000196
3232.688011,0.000215
3233.170214,0.000186
3233.652417,0.000172
3234.134620,0.000224
3234.616822,0.000456
3235.099025,0.000553
3235.581228,0.000448
3236.063431,0.000579
3236.545634,0.000720
3237.027837,0.000655
3237.510040,0.000628
3237.992243,0.000471
3238.474445,0.000275
3238.956648,0.000350
3239.438851,0.000485
3239.921054,0.000520
3240.403257,0.000492
3240.885460,0.000449
3241.367663,0.000411
3241.849865,0.000393
3242.332068,0.000454
3242.814271,0.000550
3243.296474,0.000606
3243.778677,0.000509
3244.260880,0.000311
3244.743083,0.000279
3245.225285,0.000368
3245.707488,0.000394
3246.189691,0.000377
3246.671894,0.000324
3247.154097,0.000341
3247.636300,0.000555
3248.118503,0.000683
3248.600706,0.000539
3249.082908,0.000355
3249.565111,0.000225
3250.047314,0.000160
3250.529517,0.000204
3251.011720,0.000267
3251.493923,0.000321
3251.976126,0.000370
3252.458328,0.000373
3252.940531,0.000342
3253.422734,0.000276
3253.904937,0.000321
3254.387140,0.000550
3254.869343,0.000628
3255.351546,0.000529
3255.833749,0.000496
3256.315951,0.000434
3256.798154,0.000395
3257.280357,0.000438
3257.762560,0.000465
3258.244763,0.000490
3258.726966,0.000439
3259.209169,0.000351
3259.691371,0.000350
3260.173574,0.000442
3260.655777,0.000484
3261.137980,0.000338
3261.620183,0.000269
3262.102386,0.000335
3262.584589,0.000304
3263.066792,0.000391
3263.548994,0.000592
3264.031197,0.000566
3264.513400,0.000411
3264.995603,0.000343
3265.477806,0.000389
3265.960009,0.000447
3266.442212,0.000432
3266.924414,0.000387
3267.406617,0.000229
3267.888820,0.000108
3268.371023,0.000239
3268.853226,0.000350
3269.335429,0.000366
3269.817632,0.000394
3270.299835,0.000371
3270.782037,0.000247
3271.264240,0.000110
3271.746443,0.000154
3272.228646,0.000220
3272.710849,0.000185
3273.193052,0.000164
3273.675255,0.000147
3274.157457,0.000115
3274.639660,0.000077
3275.121863,0.000206
3275.604066,0.000290
3276.086269,0.000148
3276.568472,0.000181
3277.050675,0.000304
3277.532877,0.000346
3278.015080,0.000385
3278.497283,0.000287
3278.979486,0.000113
3279.461689,0.000113
3279.943892,0.000259
3280.426095,0.000234
3280.908298,0.000231
3281.390500,0.000407
3281.872703,0.000391
3282.354906,0.000281
3282.837109,0.000283
3283.319312,0.000300
3283.801515,0.000186
3284.283718,0.000021
3284.765920,-0.000022
3285.248123,0.000025
3285.730326,0.000152
3286.212529,0.000118
3286.694732,0.000001
3287.176935,0.000055
3287.659138,0.000011
3288.141341,0.000030
3288.623543,0.000165
3289.105746,0.000101
3289.587949,0.000070
3290.070152,0.000113
3290.552355,-0.000005
3291.034558,-0.000125
3291.516761,-0.000170
3291.998963,-0.000179
3292.481166,-0.000022
3292.963369,0.000066
3293.445572,-0.000062
3293.927775,-0.000105
3294.409978,-0.000090
3294.892181,-0.000127
3295.374384,-0.000158
3295.856586,-0.000243
3296.338789,-0.000381
3296.820992,-0.000387
3297.303195,-0.000229
3297.785398,-0.000147
3298.267601,-0.000185
3298.749804,-0.000202
3299.232006,-0.000168
3299.714209,-0.000202
3300.196412,-0.000256
3300.678615,-0.000233
3301.160818,-0.000348
3301.643021,-0.000409
3302.125224,-0.000199
3302.607426,-0.000019
3303.089629,0.000046
3303.571832,0.000012
3304.054035,-0.000155
3304.536238,-0.000313
3305.018441,-0.000330
3305.500644,-0.000231
3305.982847,-0.000055
3306.465049,-0.000024
3306.947252,-0.000337
3307.429455,-0.000452
3307.911658,-0.000268
3308.393861,-0.000291
3308.876064,-0.000387
3309.358267,-0.000467
3309.840469,-0.000513
3310.322672,-0.000445
3310.804875,-0.000445
3311.287078,-0.000406
3311.769281,-0.000334
3312.251484,-0.000324
3312.733687,-0.000137
3313.215890,-0.000004
3313.698092,-0.000138
3314.180295,-0.000220
3314.662498,-0.000350
3315.144701,-0.000488
3315.626904,-0.000283
3316.109107,-0.000117
3316.591310,-0.000222
3317.073512,-0.000213
3317.555715,-0.000133
3318.037918,-0.000194
3318.520121,-0.000179
3319.002324,-0.000057
3319.484527,-0.000133
3319.966730,-0.000285
3320.448933,-0.000240
3320.931135,-0.000155
3321.413338,-0.000196
3321.895541,-0.000186
3322.377744,-0.000083
3322.859947,-0.000169
3323.342150,-0.000271
3323.824353,-0.000083
3324.306555,0.000014
3324.788758,-0.000175
3325.270961,-0.000304
3325.753164,-0.000253
3326.235367,-0.000245
3326.717570,-0.000410
3327.199773,-0.000571
3327.681976,-0.000556
3328.164178,-0.000461
3328.646381,-0.000455
3329.128584,-0.000512
3329.610787,-0.000523
3330.092990,-0.000480
3330.575193,-0.000353
3331.057396,-0.000158
3331.539598,-0.000135
3332.021801,-0.000344
3332.504004,-0.000426
3332.986207,-0.000313
3333.468410,-0.000273
3333.950613,-0.000185
3334.432816,-0.000022
3334.915018,0.000027
3335.397221,0.000113
3335.879424,0.000120
3336.361627,-0.000130
3336.843830,-0.000324
3337.326033,-0.000339
3337.808236,-0.000288
3338.290439,-0.000231
3338.772641,-0.000240
3339.254844,-0.000322
3339.737047,-0.000303
3340.219250,-0.000121
3340.701453,-0.000079
3341.183656,-0.000134
3341.665859,-0.000121
3342.148061,-0.000240
3342.630264,-0.000355
3343.112467,-0.000295
3343.594670,-0.000128
3344.076873,-0.000038
3344.559076,-0.000239
3345.041279,-0.000324
3345.523482,-0.000155
3346.005684,-0.000159
3346.487887,-0.000207
3346.970090,-0.000138
3347.452293,-0.000194
3347.934496,-0.000354
3348.416699,-0.000372
3348.898902,-0.000273
3349.381104,-0.000209
3349.863307,-0.000125
3350.345510,0.000001
3350.827713,0.000010
3351.309916,0.000065
3351.792119,0.000335
3352.274322,0.000253
3352.756525,-0.000163
3353.238727,-0.000187
3353.720930,-0.000005
3354.203133,0.000097
3354.685336,0.000250
3355.167539,0.000306
3355.649742,0.000184
3356.131945,0.000042
3356.614147,0.000009
3357.096350,-0.000054
3357.578553,-0.000044
3358.060756,0.000140
3358.542959,0.000083
3359.025162,0.000015
3359.507365,0.000408
3359.989568,0.000579
3360.471770,0.000119
3360.953973,-0.000137
3361.436176,0.000011
3361.918379,-0.000003
3362.400582,-0.000054
3362.882785,0.000137
3363.364988,0.000309
3363.847190,0.000129
3364.329393,-0.000142
3364.811596,-0.000106
3365.293799,0.000102
3365.776002,0.000271
3366.258205,0.000100
3366.740408,-0.000221
3367.222610,-0.000074
3367.704813,0.000110
3368.187016,-0.000071
3368.669219,-0.000082
3369.151422,0.000118
3369.633625,0.000144
3370.115828,0.000156
3370.598031,0.000348
3371.080233,0.000382
3371.562436,0.000092
3372.044639,-0.000100
3372.526842,0.000049
3373.009045,0.000068
3373.491248,-0.000229
3373.973451,-0.000267
3374.455653,0.000014
3374.937856,0.000172
3375.420059,0.000162
3375.902262,0.000055
3376.384465,-0.000069
3376.866668,-0.000068
3377.348871,-0.000025
3377.831074,-0.000010
3378.313276,0.000115
3378.795479,0.000229
3379.277682,0.000150
3379.759885,0.000147
3380.242088,0.000411
3380.724291,0.000593
3381.206494,0.000383
3381.688696,0.000128
3382.170899,0.000194
3382.653102,0.000313
3383.135305,0.000378
3383.617508,0.000487
3384.099711,0.000370
3384.581914,0.000161
3385.064117,0.000214
3385.546319,0.000322
3386.028522,0.000389
3386.510725,0.000440
3386.992928,0.000406
3387.475131,0.000447
3387.957334,0.000482
3388.439537,0.000397
3388.921739,0.000350
3389.403942,0.000340
3389.886145,0.000374
3390.368348,0.000385
3390.850551,0.000146
3391.332754,-0.000102
3391.814957,-0.000013
3392.297160,0.000083
3392.779362,-0.000008
3393.261565,0.000060
3393.743768,0.000150
3394.225971,0.000061
3394.708174,-0.000037
3395.190377,-0.000177
3395.672580,-0.000063
3396.154782,0.000415
3396.636985,0.000687
3397.119188,0.000663
3397.601391,0.000491
3398.083594,0.000283
3398.565797,0.000281
3399.048000,0.000196
3399.530202,-0.000015
3400.012405,0.000104
3400.494608,0.000270
3400.976811,0.000083
3401.459014,-0.000132
3401.941217,-0.000120
3402.423420,0.000064
3402.905623,0.000253
3403.387825,0.000236
3403.870028,0.000155
3404.352231,0.000086
3404.834434,-0.000001
3405.316637,0.000048
3405.798840,-0.000041
3406.281043,-0.000320
3406.763245,-0.000359
3407.245448,-0.000202
3407.727651,-0.000050
3408.209854,-0.000035
3408.692057,-0.000180
3409.174260,-0.000233
3409.656463,-0.000061
3410.138666,0.000200
3410.620868,0.000287
3411.103071,0.000119
3411.585274,-0.000055
3412.067477,-0.000104
3412.549680,-0.000141
3413.031883,-0.000112
3413.514086,0.000046
3413.996288,0.000167
3414.478491,0.000215
3414.960694,0.000152
3415.442897,0.000018
3415.925100,-0.000089
3416.407303,-0.000172
3416.889506,-0.000094
3417.371709,0.000010
3417.853911,-0.000058
3418.336114,-0.000069
3418.818317,-0.000006
3419.300520,-0.000109
3419.782723,-0.000232
3420.264926,-0.000154
3420.747129,-0.000102
3421.229331,-0.000200
3421.711534,-0.000216
3422.193737,-0.000161
3422.675940,-0.000118
3423.158143,0.000020
3423.640346,0.000160
3424.122549,0.000088
3424.604751,-0.000034
3425.086954,-0.000014
3425.569157,-0.000073
3426.051360,-0.000154
3426.533563,0.000048
3427.015766,0.000158
3427.497969,-0.000103
3427.980172,-0.000118
3428.462374,0.000257
3428.944577,0.000333
3429.426780,0.000120
3429.908983,0.000072
3430.391186,-0.000041
3430.873389,-0.000190
3431.355592,0.000032
3431.837794,0.000261
3432.319997,0.000251
3432.802200,0.000247
3433.284403,0.000115
3433.766606,0.000007
3434.248809,0.000300
3434.731012,0.000537
3435.213215,0.000354
3435.695417,0.000269
3436.177620,0.000343
3436.659823,0.000270
3437.142026,0.000300
3437.624229,0.000359
3438.106432,0.000361
3438.588635,0.000414
3439.070837,0.000211
3439.553040,0.000055
3440.035243,0.000236
3440.517446,0.000252
3440.999649,0.000234
3441.481852,0.000507
3441.964055,0.000727
3442.446258,0.000605
3442.928460,0.000280
3443.410663,0.000170
3443.892866,0.000261
3444.375069,0.000233
3444.857272,0.000268
3445.339475,0.000341
3445.821678,0.000252
3446.303880,0.000243
3446.786083,0.000316
3447.268286,0.000358
3447.750489,0.000419
3448.232692,0.000369
3448.714895,0.000283
3449.197098,0.000173
3449.679301,-0.000067
3450.161503,-0.000010
3450.643706,0.000291
3451.125909,0.000188
3451.608112,0.000032
3452.090315,0.000208
3452.572518,0.000279
3453.054721,0.000159
3453.536923,0.000055
3454.019126,0.000094
3454.501329,0.000210
3454.983532,0.000150
3455.465735,0.000030
3455.947938,-0.000001
3456.430141,-0.000021
3456.912343,0.000018
3457.394546,0.000229
3457.876749,0.000391
3458.358952,0.000184
3458.841155,-0.000009
3459.323358,0.000052
3459.805561,0.000037
3460.287764,0.000004
3460.769966,0.000020
3461.252169,0.000010
3461.734372,0.000040
3462.216575,0.000098
3462.698778,0.000076
3463.180981,-0.000066
3463.663184,-0.000123
3464.145386,-0.000063
3464.627589,-0.000071
3465.109792,-0.000143
3465.591995,-0.000164
3466.074198,-0.000073
3466.556401,-0.000033
3467.038604,-0.000112
3467.520807,-0.000182
3468.003009,-0.000213
3468.485212,-0.000181
3468.967415,-0.000027
3469.449618,0.000146
3469.931821,0.000155
3470.414024,0.000168
3470.896227,0.000183
3471.378429,-0.000071
3471.860632,-0.000251
3472.342835,-0.000142
3472.825038,-0.000102
3473.307241,-0.000252
3473.789444,-0.000333
3474.271647,-0.000098
3474.753850,0.000121
3475.236052,-0.000030
3475.718255,-0.000234
3476.200458,-0.000185
3476.682661,0.000041
3477.164864,0.000126
3477.647067,-0.000019
3478.129270,-0.000003
3478.611472,0.000134
3479.093675,0.000119
3479.575878,0.000089
3480.058081,0.000045
3480.540284,0.000136
3481.022487,0.000405
3481.504690,0.000240
3481.986893,-0.000196
3482.469095,-0.000151
3482.951298,0.000066
3483.433501,0.000002
3483.915704,-0.000003
3484.397907,0.000144
3484.880110,0.000183
3485.362313,0.000097
3485.844515,0.000031
3486.326718,0.000069
3486.808921,0.000085
3487.291124,0.000005
3487.773327,-0.000030
3488.255530,0.000035
3488.737733,0.000059
3489.219935,0.000019
3489.702138,0.000039
3490.184341,0.000053
3490.666544,0.000190
3491.148747,0.000402
3491.630950,0.000156
3492.113153,-0.000265
3492.595356,-0.000271
3493.077558,-0.000061
3493.559761,0.000029
3494.041964,-0.000004
3494.524167,-0.000002
3495.006370,-0.000035
3495.488573,-0.000142
3495.970776,-0.000191
3496.452978,-0.000209
3496.935181,-0.000144
3497.417384,-0.000058
3497.899587,-0.000092
3498.381790,-0.000085
3498.863993,0.000016
3499.346196,0.000131
3499.828399,0.000173
3500.310601,0.000095
3500.792804,0.000022
3501.275007,-0.000026
3501.757210,0.000100
3502.239413,0.000405
3502.721616,0.000390
3503.203819,0.000162
3503.686021,0.000153
3504.168224,0.000080
3504.650427,-0.000215
3505.132630,-0.000297
3505.614833,-0.000131
3506.097036,-0.000076
3506.579239,-0.000063
3507.061442,-0.000003
3507.543644,0.000023
3508.025847,0.000048
3508.508050,0.000001
3508.990253,-0.000103
3509.472456,-0.000130
3509.954659,0.000052
3510.436862,0.000156
3510.919064,-0.000114
3511.401267,-0.000191
3511.883470,-0.000102
3512.365673,-0.000240
3512.847876,-0.000235
3513.330079,-0.000216
3513.812282,-0.000354
3514.294484,-0.000435
3514.776687,-0.000415
3515.258890,-0.000167
3515.741093,0.000100
3516.223296,0.000158
3516.705499,0.000054
3517.187702,-0.000187
3517.669905,-0.000321
3518.152107,-0.000339
3518.634310,-0.000373
3519.116513,-0.000264
3519.598716,-0.000015
3520.080919,0.000188
3520.563122,0.000209
3521.045325,0.000065
3521.527527,-0.000078
3522.009730,-0.000203
3522.491933,-0.000282
3522.974136,-0.000224
3523.456339,-0.000228
3523.938542,-0.000225
3524.420745,-0.000032
3524.902948,0.000025
3525.385150,-0.000008
3525.867353,0.000046
3526.349556,-0.000085
3526.831759,-0.000183
3527.313962,0.000033
3527.796165,0.000206
3528.278368,0.000198
3528.760570,0.000288
3529.242773,0.000404
3529.724976,0.000298
3530.207179,0.000128
3530.689382,0.000033
3531.171585,-0.000127
3531.653788,-0.000370
3532.135991,-0.000366
3532.618193,0.000039
3533.100396,0.000295
3533.582599,0.000093
3534.064802,-0.000228
3534.547005,-0.000389
3535.029208,-0.000300
3535.511411,-0.000247
3535.993613,-0.000244
3536.475816,0.000055
3536.958019,0.000164
3537.440222,-0.000139
3537.922425,-0.000221
3538.404628,0.000020
3538.886831,0.000134
3539.369034,-0.000065
3539.851236,-0.000211
3540.333439,-0.000138
3540.815642,-0.000161
3541.297845,-0.000187
3541.780048,-0.000040
3542.262251,0.000015
3542.744454,-0.000104
3543.226656,-0.000118
3543.708859,0.000010
3544.191062,0.000247
3544.673265,0.000614
3545.155468,0.000761
3545.637671,0.000630
3546.119874,0.000348
3546.602076,0.000120
3547.084279,0.000327
3547.566482,0.000436
3548.048685,0.000180
3548.530888,0.000080
3549.013091,0.000029
3549.495294,0.000039
3549.977497,0.000239
3550.459699,0.000433
3550.941902,0.000584
3551.424105,0.000718
3551.906308,0.000865
3552.388511,0.000860
3552.870714,0.000646
3553.352917,0.000586
3553.835119,0.000727
3554.317322,0.000723
3554.799525,0.000606
3555.281728,0.000712
3555.763931,0.000820
3556.246134,0.000688
3556.728337,0.000695
3557.210540,0.000881
3557.692742,0.001047
3558.174945,0.001119
3558.657148,0.000987
3559.139351,0.000903
3559.621554,0.001098
3560.103757,0.001466
3560.585960,0.001804
3561.068162,0.001809
3561.550365,0.001638
3562.032568,0.001739
3562.514771,0.001903
3562.996974,0.001844
3563.479177,0.001929
3563.961380,0.002292
3564.443583,0.002564
3564.925785,0.002706
3565.407988,0.002997
3565.890191,0.003489
3566.372394,0.003976
3566.854597,0.004260
3567.336800,0.004135
3567.819003,0.003941
3568.301205,0.004166
3568.783408,0.004138
3569.265611,0.003622
3569.747814,0.003368
3570.230017,0.003420
3570.712220,0.003508
3571.194423,0.003519
3571.676626,0.003462
3572.158828,0.003341
3572.641031,0.003239
3573.123234,0.003395
3573.605437,0.003615
3574.087640,0.003679
3574.569843,0.003668
3575.052046,0.003702
3575.534248,0.003739
3576.016451,0.003556
3576.498654,0.003397
3576.980857,0.003567
3577.463060,0.003720
3577.945263,0.003505
3578.427466,0.003247
3578.909668,0.003190
3579.391871,0.003102
3579.874074,0.003180
3580.356277,0.003336
3580.838480,0.003178
3581.320683,0.002981
3581.802886,0.002747
3582.285089,0.002514
3582.767291,0.002553
3583.249494,0.002564
3583.731697,0.002535
3584.213900,0.002623
3584.696103,0.002590
3585.178306,0.002528
3585.660509,0.002688
3586.142711,0.002991
3586.624914,0.003348
3587.107117,0.003590
3587.589320,0.003502
3588.071523,0.003406
3588.553726,0.003758
3589.035929,0.004441
3589.518132,0.004843
3590.000334,0.004985
3590.482537,0.005042
3590.964740,0.004183
3591.446943,0.002570
3591.929146,0.001556
3592.411349,0.001307
3592.893552,0.001321
3593.375754,0.001422
3593.857957,0.001548
3594.340160,0.001745
3594.822363,0.002031
3595.304566,0.002363
3595.786769,0.002576
3596.268972,0.002494
3596.751175,0.002311
3597.233377,0.002388
3597.715580,0.002577
3598.197783,0.002612
3598.679986,0.002836
3599.162189,0.003222
3599.644392,0.003328
3600.126595,0.003338
3600.608797,0.003460
3601.091000,0.003691
3601.573203,0.003877
3602.055406,0.003768
3602.537609,0.003716
3603.019812,0.003822
3603.502015,0.003702
3603.984217,0.003573
3604.466420,0.003576
3604.948623,0.003512
3605.430826,0.003614
3605.913029,0.003845
3606.395232,0.003773
3606.877435,0.003762
3607.359638,0.004135
3607.841840,0.004234
3608.324043,0.003888
3608.806246,0.003753
3609.288449,0.004209
3609.770652,0.004549
3610.252855,0.003899
3610.735058,0.003205
3611.217260,0.003031
3611.699463,0.002675
3612.181666,0.002594
3612.663869,0.003384
3613.146072,0.003739
3613.628275,0.003050
3614.110478,0.002575
3614.592681,0.002562
3615.074883,0.002348
3615.557086,0.001900
3616.039289,0.001693
3616.521492,0.001740
3617.003695,0.001593
3617.485898,0.001544
3617.968101,0.001811
3618.450303,0.001827
3618.932506,0.001716
3619.414709,0.001805
3619.896912,0.001828
3620.379115,0.001510
3620.861318,0.000931
3621.343521,0.000618
3621.825724,0.000571
3622.307926,0.000225
3622.790129,-0.000021
3623.272332,0.000230
3623.754535,0.000290
3624.236738,0.000130
3624.718941,0.000043
3625.201144,-0.000079
3625.683346,-0.000022
3626.165549,0.000264
3626.647752,0.000447
3627.129955,0.000400
3627.612158,0.000387
3628.094361,0.000897
3628.576564,0.001840
3629.058767,0.002255
3629.540969,0.002111
3630.023172,0.002046
3630.505375,0.001289
3630.987578,0.000244
3631.469781,0.000054
3631.951984,0.000012
3632.434187,-0.000234
3632.916389,-0.000210
3633.398592,-0.000231
3633.880795,-0.000194
3634.362998,0.000061
3634.845201,-0.000070
3635.327404,-0.000523
3635.809607,-0.000752
3636.291809,-0.000773
3636.774012,-0.000740
3637.256215,-0.000688
3637.738418,-0.000658
3638.220621,-0.000559
3638.702824,-0.000536
3639.185027,-0.000694
3639.667230,-0.000749
3640.149432,-0.000713
3640.631635,-0.000672
3641.113838,-0.000629
3641.596041,-0.000648
3642.078244,-0.000491
3642.560447,-0.000222
3643.042650,-0.000179
3643.524852,-0.000183
3644.007055,-0.000084
3644.489258,0.000024
3644.971461,0.000161
3645.453664,0.000264
3645.935867,0.000438
3646.418070,0.000832
3646.900273,0.001352
3647.382475,0.002060
3647.864678,0.002572
3648.346881,0.002264
3648.829084,0.001822
3649.311287,0.002113
3649.793490,0.002486
3650.275693,0.002086
3650.757895,0.001820
3651.240098,0.002071
3651.722301,0.001857
3652.204504,0.001076
3652.686707,0.000394
3653.168910,0.000037
3653.651113,-0.000053
3654.133316,-0.000093
3654.615518,-0.000041
3655.097721,0.000195
3655.579924,0.000383
3656.062127,0.000559
3656.544330,0.000934
3657.026533,0.001074
3657.508736,0.000548
3657.990938,-0.000029
3658.473141,-0.000139
3658.955344,-0.000061
3659.437547,-0.000109
3659.919750,-0.000229
3660.401953,-0.000282
3660.884156,-0.000265
3661.366359,-0.000369
3661.848561,-0.000569
3662.330764,-0.000522
3662.812967,-0.000174
3663.295170,0.000068
3663.777373,-0.000065
3664.259576,-0.000230
3664.741779,-0.000069
3665.223981,0.000074
3665.706184,0.000022
3666.188387,0.000040
3666.670590,0.000067
3667.152793,0.000192
3667.634996,0.000477
3668.117199,0.000736
3668.599401,0.001295
3669.081604,0.002057
3669.563807,0.002229
3670.046010,0.002034
3670.528213,0.002179
3671.010416,0.002538
3671.492619,0.002417
3671.974822,0.001768
3672.457024,0.001349
3672.939227,0.001296
3673.421430,0.001320
3673.903633,0.001599
3674.385836,0.002232
3674.868039,0.002965
3675.350242,0.003376
3675.832444,0.003341
3676.314647,0.003303
3676.796850,0.002772
3677.279053,0.001702
3677.761256,0.001068
3678.243459,0.000833
3678.725662,0.000718
3679.207865,0.000876
3679.690067,0.001231
3680.172270,0.001402
3680.654473,0.001065
3681.136676,0.000555
3681.618879,0.000405
3682.101082,0.000343
3682.583285,0.000219
3683.065487,0.000389
3683.547690,0.000597
3684.029893,0.000531
3684.512096,0.000503
3684.994299,0.000591
3685.476502,0.000784
3685.958705,0.000944
3686.440908,0.000926
3686.923110,0.001038
3687.405313,0.001412
3687.887516,0.001878
3688.369719,0.002488
3688.851922,0.003089
3689.334125,0.002674
3689.816328,0.001716
3690.298530,0.001389
3690.780733,0.001343
3691.262936,0.001467
3691.745139,0.001661
3692.227342,0.001212
3692.709545,0.000593
3693.191748,0.000216
3693.673951,0.000067
3694.156153,0.000215
3694.638356,0.000196
3695.120559,-0.000080
3695.602762,-0.000298
3696.084965,-0.000394
3696.567168,-0.000269
3697.049371,0.000041
3697.531573,0.000296
3698.013776,0.000323
3698.495979,0.000164
3698.978182,0.000112
3699.460385,0.000201
3699.942588,0.000150
3700.424791,0.000115
3700.906993,0.000275
3701.389196,0.000489
3701.871399,0.000834
3702.353602,0.000929
3702.835805,0.000485
3703.318008,0.000191
3703.800211,0.000097
3704.282414,-0.000126
3704.764616,-0.000239
3705.246819,-0.000093
3705.729022,0.000114
3706.211225,0.000156
3706.693428,0.000144
3707.175631,0.000144
3707.657834,0.000122
3708.140036,0.000326
3708.622239,0.000645
3709.104442,0.000986
3709.586645,0.001528
3710.068848,0.001656
3710.551051,0.001198
3711.033254,0.001068
3711.515457,0.001335
3711.997659,0.001729
3712.479862,0.002201
3712.962065,0.001877
3713.444268,0.000795
3713.926471,0.000122
3714.408674,0.000001
3714.890877,0.000078
3715.373079,0.000097
3715.855282,-0.000029
3716.337485,-0.000211
3716.819688,-0.000284
3717.301891,-0.000138
3717.784094,-0.000100
3718.266297,-0.000198
3718.748500,-0.000051
3719.230702,0.000197
3719.712905,0.000309
3720.195108,0.000318
3720.677311,0.000334
3721.159514,0.000317
3721.641717,0.000264
3722.123920,0.000527
3722.606122,0.000930
3723.088325,0.000843
3723.570528,0.000486
3724.052731,0.000349
3724.534934,0.000289
3725.017137,0.000290
3725.499340,0.000386
3725.981542,0.000249
3726.463745,0.000191
3726.945948,0.000431
3727.428151,0.000421
3727.910354,0.000202
3728.392557,-0.000008
3728.874760,-0.000117
3729.356963,0.000012
3729.839165,0.000068
3730.321368,0.000187
3730.803571,0.000610
3731.285774,0.000881
3731.767977,0.001244
3732.250180,0.002148
3732.732383,0.002611
3733.214585,0.002049
3733.696788,0.001483
3734.178991,0.001490
3734.661194,0.002070
3735.143397,0.002643
3735.625600,0.002499
3736.107803,0.001918
3736.590006,0.001688
3737.072208,0.001885
3737.554411,0.001625
3738.036614,0.000946
3738.518817,0.000826
3739.001020,0.000968
3739.483223,0.000708
3739.965426,0.000463
3740.447628,0.000664
3740.929831,0.000942
3741.412034,0.001124
3741.894237,0.001332
3742.376440,0.001253
3742.858643,0.001200
3743.340846,0.001625
3743.823049,0.002463
3744.305251,0.003784
3744.787454,0.004731
3745.269657,0.004198
3745.751860,0.002853
3746.234063,0.001732
3746.716266,0.001308
3747.198469,0.001453
3747.680671,0.001588
3748.162874,0.001612
3748.645077,0.001753
3749.127280,0.002374
3749.609483,0.003491
3750.091686,0.003967
3750.573889,0.003087
3751.056092,0.002119
3751.538294,0.001906
3752.020497,0.002340
3752.502700,0.002892
3752.984903,0.002613
3753.467106,0.001492
3753.949309,0.000732
3754.431512,0.000552
3754.913714,0.000482
3755.395917,0.000353
3755.878120,0.000214
3756.360323,0.000250
3756.842526,0.000534
3757.324729,0.000728
3757.806932,0.000601
3758.289134,0.000417
3758.771337,0.000512
3759.253540,0.000697
3759.735743,0.000844
3760.217946,0.001073
3760.700149,0.000883
3761.182352,0.000339
3761.664555,0.000075
3762.146757,-0.000028
3762.628960,-0.000139
3763.111163,-0.000216
3763.593366,-0.000210
3764.075569,-0.000074
3764.557772,0.000073
3765.039975,0.000181
3765.522177,0.000378
3766.004380,0.000753
3766.486583,0.000806
3766.968786,0.000316
3767.450989,0.000050
3767.933192,0.000139
3768.415395,0.000158
3768.897598,0.000103
3769.379800,0.000242
3769.862003,0.000750
3770.344206,0.001040
3770.826409,0.000487
3771.308612,-0.000244
3771.790815,-0.000536
3772.273018,-0.000563
3772.755220,-0.000519
3773.237423,-0.000454
3773.719626,-0.000419
3774.201829,-0.000438
3774.684032,-0.000472
3775.166235,-0.000413
3775.648438,-0.000315
3776.130641,-0.000313
3776.612843,-0.000403
3777.095046,-0.000519
3777.577249,-0.000417
3778.059452,-0.000088
3778.541655,0.000034
3779.023858,0.000048
3779.506061,0.000424
3779.988263,0.000708
3780.470466,0.000441
3780.952669,0.000045
3781.434872,-0.000360
3781.917075,-0.000610
3782.399278,-0.000515
3782.881481,-0.000493
3783.363684,-0.000555
3783.845886,-0.000409
3784.328089,-0.000172
3784.810292,-0.000046
3785.292495,-0.000057
3785.774698,-0.000190
3786.256901,-0.000442
3786.739104,-0.000563
3787.221306,-0.000510
3787.703509,-0.000487
3788.185712,-0.000535
3788.667915,-0.000661
3789.150118,-0.000652
3789.632321,-0.000530
3790.114524,-0.000496
3790.596726,-0.000462
3791.078929,-0.000514
3791.561132,-0.000586
3792.043335,-0.000594
3792.525538,-0.000617
3793.007741,-0.000516
3793.489944,-0.000358
3793.972147,-0.000257
3794.454349,-0.000199
3794.936552,-0.000196
3795.418755,-0.000199
3795.900958,-0.000103
3796.383161,0.000405
3796.865364,0.000980
3797.347567,0.000809
3797.829769,0.000387
3798.311972,0.000263
3798.794175,0.000162
3799.276378,0.000278
3799.758581,0.000667
3800.240784,0.000867
3800.722987,0.001057
3801.205190,0.001718
3801.687392,0.002499
3802.169595,0.002330
3802.651798,0.001383
3803.134001,0.000891
3803.616204,0.000734
3804.098407,0.000431
3804.580610,0.000251
3805.062812,0.000217
3805.545015,0.000291
3806.027218,0.000553
3806.509421,0.000838
3806.991624,0.001201
3807.473827,0.001389
3807.956030,0.000972
3808.438233,0.000362
3808.920435,0.000002
3809.402638,-0.000078
3809.884841,-0.000152
3810.367044,-0.000291
3810.849247,-0.000310
3811.331450,-0.000308
3811.813653,-0.000342
3812.295855,-0.000264
3812.778058,-0.000062
3813.260261,0.000194
3813.742464,0.000443
3814.224667,0.000453
3814.706870,0.000406
3815.189073,0.000681
3815.671275,0.001056
3816.153478,0.001678
3816.635681,0.002251
3817.117884,0.001666
3817.600087,0.000754
3818.082290,0.000464
3818.564493,0.000533
3819.046696,0.000653
3819.528898,0.000905
3820.011101,0.001262
3820.493304,0.001638
3820.975507,0.002123
3821.457710,0.002260
3821.939913,0.001993
3822.422116,0.001610
3822.904318,0.000837
3823.386521,0.000233
3823.868724,0.000108
3824.350927,0.000094
3824.833130,0.000176
3825.315333,0.000271
3825.797536,0.000324
3826.279739,0.000287
3826.761941,0.000376
3827.244144,0.000712
3827.726347,0.000545
3828.208550,0.000071
3828.690753,0.000011
3829.172956,0.000060
3829.655159,0.000022
3830.137361,0.000073
3830.619564,0.000174
3831.101767,0.000219
3831.583970,0.000537
3832.066173,0.001175
3832.548376,0.001069
3833.030579,0.000385
3833.512782,0.000267
3833.994984,0.000581
3834.477187,0.000948
3834.959390,0.001339
3835.441593,0.001638
3835.923796,0.001623
3836.405999,0.001312
3836.888202,0.001165
3837.370404,0.001495
3837.852607,0.002217
3838.334810,0.002669
3838.817013,0.002160
3839.299216,0.001330
3839.781419,0.000913
3840.263622,0.001012
3840.745825,0.001216
3841.228027,0.001168
3841.710230,0.000881
3842.192433,0.000413
3842.674636,0.000172
3843.156839,0.000253
3843.639042,0.000418
3844.121245,0.000666
3844.603447,0.000636
3845.085650,0.000196
3845.567853,-0.000178
3846.050056,-0.000256
3846.532259,-0.000090
3847.014462,-0.000036
3847.496665,-0.000242
3847.978867,-0.000202
3848.461070,0.000151
3848.943273,0.000354
3849.425476,0.000514
3849.907679,0.000865
3850.389882,0.001097
3850.872085,0.001190
3851.354288,0.001548
3851.836490,0.002243
3852.318693,0.003174
3852.800896,0.003611
3853.283099,0.003030
3853.765302,0.002849
3854.247505,0.003692
3854.729708,0.003970
3855.211910,0.002723
3855.694113,0.001419
3856.176316,0.000759
3856.658519,0.000446
3857.140722,0.000401
3857.622925,0.000534
3858.105128,0.000467
3858.587331,0.000267
3859.069533,0.000180
3859.551736,0.000263
3860.033939,0.000377
3860.516142,0.000293
3860.998345,0.000299
3861.480548,0.000701
3861.962751,0.001146
3862.444953,0.001159
3862.927156,0.000935
3863.409359,0.000884
3863.891562,0.000796
3864.373765,0.000817
3864.855968,0.001333
3865.338171,0.001771
3865.820374,0.001499
3866.302576,0.000870
3866.784779,0.000521
3867.266982,0.000490
3867.749185,0.000555
3868.231388,0.000663
3868.713591,0.000806
3869.195794,0.001118
3869.677996,0.001512
3870.160199,0.001829
3870.642402,0.002019
3871.124605,0.001641
3871.606808,0.001033
3872.089011,0.000653
3872.571214,0.000364
3873.053417,0.000379
3873.535619,0.000625
3874.017822,0.000852
3874.500025,0.001135
3874.982228,0.001123
3875.464431,0.000553
3875.946634,0.000048
3876.428837,0.000125
3876.911039,0.000198
3877.393242,-0.000002
3877.875445,0.000212
3878.357648,0.000550
3878.839851,0.000480
3879.322054,0.000402
3879.804257,0.000581
3880.286459,0.001058
3880.768662,0.001463
3881.250865,0.001256
3881.733068,0.000806
3882.215271,0.000389
3882.697474,0.000081
3883.179677,0.000207
3883.661880,0.000587
3884.144082,0.000868
3884.626285,0.000847
3885.108488,0.000744
3885.590691,0.001164
3886.072894,0.001657
3886.555097,0.001402
3887.037300,0.000752
3887.519502,0.000348
3888.001705,0.000350
3888.483908,0.000379
3888.966111,0.000292
3889.448314,0.000268
3889.930517,0.000174
3890.412720,0.000285
3890.894923,0.000662
3891.377125,0.001033
3891.859328,0.001366
3892.341531,0.001013
3892.823734,0.000295
3893.305937,0.000156
3893.788140,0.000129
3894.270343,-0.000101
3894.752545,-0.000182
3895.234748,-0.000212
3895.716951,-0.000128
3896.199154,0.000131
3896.681357,0.000262
3897.163560,0.000360
3897.645763,0.000541
3898.127966,0.000586
3898.610168,0.000617
3899.092371,0.000880
3899.574574,0.001305
3900.056777,0.001523
3900.538980,0.001281
3901.021183,0.001065
3901.503386,0.001306
3901.985588,0.001765
3902.467791,0.001925
3902.949994,0.001574
3903.432197,0.001120
3903.914400,0.001077
3904.396603,0.001485
3904.878806,0.001559
3905.361008,0.000915
3905.843211,0.000506
3906.325414,0.000586
3906.807617,0.000462
3907.289820,0.000117
3907.772023,-0.000046
3908.254226,-0.000087
3908.736429,-0.000114
3909.218631,-0.000095
3909.700834,-0.000143
3910.183037,-0.000255
3910.665240,-0.000275
3911.147443,-0.000298
3911.629646,-0.000310
3912.111849,-0.000170
3912.594051,-0.000058
3913.076254,0.000049
3913.558457,0.000252
3914.040660,0.000267
3914.522863,0.000082
3915.005066,0.000022
3915.487269,0.000102
3915.969472,0.000160
3916.451674,0.000237
3916.933877,0.000421
3917.416080,0.000686
3917.898283,0.000802
3918.380486,0.000605
3918.862689,0.000326
3919.344892,0.000112
3919.827094,0.000037
3920.309297,0.000186
3920.791500,0.000366
3921.273703,0.000325
3921.755906,0.000101
3922.238109,-0.000042
3922.720312,-0.000062
3923.202515,-0.000061
3923.684717,-0.000044
3924.166920,-0.000063
3924.649123,0.000012
3925.131326,0.000273
3925.613529,0.000422
3926.095732,0.000281
3926.577935,0.000120
3927.060137,-0.000002
3927.542340,-0.000204
3928.024543,-0.000207
3928.506746,0.000017
3928.988949,0.000209
3929.471152,0.000336
3929.953355,0.000409
3930.435558,0.000427
3930.917760,0.000281
3931.399963,0.000045
3931.882166,0.000054
3932.364369,0.000345
3932.846572,0.000599
3933.328775,0.000396
3933.810978,-0.000033
3934.293180,-0.000048
3934.775383,0.000099
3935.257586,-0.000029
3935.739789,-0.000070
3936.221992,-0.000029
3936.704195,-0.000192
3937.186398,-0.000176
3937.668600,0.000076
3938.150803,0.000144
3938.633006,0.000037
3939.115209,-0.000017
3939.597412,0.000077
3940.079615,0.000168
3940.561818,0.000166
3941.044021,0.000185
3941.526223,0.000196
3942.008426,0.000279
3942.490629,0.000483
3942.972832,0.000541
3943.455035,0.000346
3943.937238,0.000003
3944.419441,-0.000230
3944.901643,-0.000095
3945.383846,0.000121
3945.866049,0.000077
3946.348252,-0.000023
3946.830455,-0.000013
3947.312658,0.000004
3947.794861,0.000105
3948.277064,0.000278
3948.759266,0.000280
3949.241469,0.000203
3949.723672,0.000280
3950.205875,0.000455
3950.688078,0.000432
3951.170281,0.000160
3951.652484,0.000009
3952.134686,-0.000046
3952.616889,-0.000182
3953.099092,-0.000154
3953.581295,-0.000031
3954.063498,-0.000150
3954.545701,-0.000175
3955.027904,0.000189
3955.510107,0.000358
3955.992309,0.000178
3956.474512,0.000105
3956.956715,0.000082
3957.438918,-0.000019
3957.921121,-0.000093
3958.403324,-0.000048
3958.885527,0.000009
3959.367729,-0.000061
3959.849932,-0.000102
3960.332135,-0.000161
3960.814338,-0.000208
3961.296541,-0.000095
3961.778744,-0.000021
3962.260947,0.000032
3962.743150,0.000017
3963.225352,-0.000108
3963.707555,-0.000069
3964.189758,-0.000070
3964.671961,-0.000149
3965.154164,-0.000024
3965.636367,0.000024
3966.118570,-0.000087
3966.600772,-0.000064
3967.082975,0.000038
3967.565178,0.000087
3968.047381,0.000065
3968.529584,-0.000072
3969.011787,-0.000136
3969.493990,0.000017
3969.976192,0.000031
3970.458395,-0.000111
3970.940598,-0.000097
3971.422801,-0.000067
3971.905004,-0.000101
3972.387207,-0.000148
3972.869410,-0.000166
3973.351613,-0.000076
3973.833815,-0.000033
3974.316018,-0.000041
3974.798221,-0.000013
3975.280424,0.000036
3975.762627,0.000073
3976.244830,-0.000015
3976.727033,-0.000097
3977.209235,-0.000055
3977.691438,-0.000022
3978.173641,-0.000100
3978.655844,-0.000199
3979.138047,-0.000164
3979.620250,-0.000198
3980.102453,-0.000286
3980.584656,-0.000190
3981.066858,-0.000089
3981.549061,-0.000017
3982.031264,0.000024
3982.513467,-0.000063
3982.995670,-0.000091
3983.477873,-0.000094
3983.960076,-0.000147
3984.442278,-0.000072
3984.924481,-0.000051
3985.406684,-0.000221
3985.888887,-0.000227
3986.371090,-0.000069
3986.853293,0.000009
3987.335496,0.000049
3987.817699,0.000001
3988.299901,-0.000077
3988.782104,-0.000102
3989.264307,-0.000097
3989.746510,0.000120
3990.228713,0.000316
3990.710916,0.000176
3991.193119,0.000043
3991.675321,0.000070
3992.157524,-0.000010
3992.639727,-0.000132
3993.121930,-0.000066
3993.604133,-0.000018
3994.086336,-0.000048
3994.568539,0.000143
3995.050742,0.000313
3995.532944,0.000174
3996.015147,-0.000026
3996.497350,-0.000094
3996.979553,-0.000060
3997.461756,-0.000025
3997.943959,-0.000089
3998.426162,-0.000183
3998.908364,-0.000120
3999.390567,0.000037
3999.872770,0.000090
4000.354973,0.000152
