XLabel,Wavenumber
YLabel,Absorbance
FileType,Absorbance
DisplayDirection,20300
PeakDirection,20312
899.790547,0.001624
900.272750,0.002788
900.754953,0.001814
901.237156,0.001315
901.719359,0.000807
902.201562,-0.000207
902.683764,0.000499
903.165967,0.001272
903.648170,0.000392
904.130373,-0.000226
904.612576,-0.000154
905.094779,0.000328
905.576982,0.001260
906.059184,0.001037
906.541387,-0.000019
907.023590,-0.000840
907.505793,-0.001314
907.987996,-0.000466
908.470199,0.000592
908.952402,0.000338
909.434605,-0.000470
909.916807,-0.000551
910.399010,-0.000235
910.881213,-0.001400
911.363416,-0.002341
911.845619,-0.000828
912.327822,0.000502
912.810025,0.000216
913.292227,-0.000014
913.774430,-0.000208
914.256633,-0.001335
914.738836,-0.002120
915.221039,-0.001892
915.703242,-0.001660
916.185445,-0.001126
916.667648,-0.000927
917.149850,-0.001706
917.632053,-0.001523
918.114256,-0.000227
918.596459,-0.000226
919.078662,-0.001845
919.560865,-0.002773
920.043068,-0.002584
920.525270,-0.003181
921.007473,-0.004198
921.489676,-0.003831
921.971879,-0.002839
922.454082,-0.002187
922.936285,-0.002028
923.418488,-0.003156
923.900690,-0.003212
924.382893,-0.001454
924.865096,-0.001793
925.347299,-0.002630
925.829502,-0.001665
926.311705,-0.001560
926.793908,-0.001719
927.276111,-0.000768
927.758313,-0.000115
928.240516,-0.000288
928.722719,-0.001205
929.204922,-0.002132
929.687125,-0.002036
930.169328,-0.001622
930.651531,-0.001452
931.133733,-0.000969
931.615936,-0.000793
932.098139,-0.000723
932.580342,0.000137
933.062545,-0.000127
933.544748,-0.001323
934.026951,-0.000883
934.509154,-0.000386
934.991356,-0.000921
935.473559,-0.000788
935.955762,-0.000606
936.437965,-0.000570
936.920168,0.000405
937.402371,0.000963
937.884574,0.000439
938.366776,0.000081
938.848979,-0.000122
939.331182,-0.000260
939.813385,-0.000072
940.295588,0.000240
940.777791,0.000749
941.259994,0.000729
941.742197,0.000196
942.224399,-0.000034
942.706602,-0.000011
943.188805,0.000077
943.671008,-0.000429
944.153211,-0.001119
944.635414,-0.001327
945.117617,-0.002027
945.599819,-0.002189
946.082022,-0.001000
946.564225,-0.000133
947.046428,0.000265
947.528631,0.000392
948.010834,-0.000235
948.493037,-0.000732
948.975240,-0.000523
949.457442,-0.000430
949.939645,-0.000656
950.421848,-0.000528
950.904051,-0.000282
951.386254,-0.000280
951.868457,-0.000054
952.350660,0.000178
952.832862,0.000024
953.315065,-0.000224
953.797268,-0.000340
954.279471,-0.000126
954.761674,0.000018
955.243877,-0.000186
955.726080,-0.000151
956.208282,-0.000127
956.690485,-0.000339
957.172688,-0.000287
957.654891,-0.000044
958.137094,0.000381
958.619297,0.000672
959.101500,0.000313
959.583703,-0.000080
960.065905,-0.000246
960.548108,-0.000520
961.030311,-0.000621
961.512514,-0.000452
961.994717,-0.000280
962.476920,-0.000338
962.959123,-0.000450
963.441325,-0.000091
963.923528,0.000258
964.405731,-0.000000
964.887934,-0.000148
965.370137,0.000119
965.852340,0.000123
966.334543,0.000047
966.816746,0.000280
967.298948,0.000186
967.781151,-0.000188
968.263354,-0.000179
968.745557,-0.000181
969.227760,-0.000406
969.709963,-0.000229
970.192166,0.000212
970.674368,0.000191
971.156571,-0.000082
971.638774,-0.000029
972.120977,0.000190
972.603180,0.000252
973.085383,0.000086
973.567586,-0.000084
974.049789,0.000007
974.531991,0.000063
975.014194,-0.000081
975.496397,-0.000109
975.978600,-0.000094
976.460803,-0.000084
976.943006,0.000155
977.425209,0.000428
977.907411,0.000463
978.389614,0.000364
978.871817,0.000373
979.354020,0.000228
979.836223,-0.000206
980.318426,-0.000286
980.800629,0.000008
981.282831,0.000293
981.765034,0.000403
982.247237,0.000244
982.729440,0.000320
983.211643,0.000592
983.693846,0.000543
984.176049,0.000403
984.658252,0.000316
985.140454,0.000270
985.622657,0.000450
986.104860,0.000664
986.587063,0.000767
987.069266,0.000958
987.551469,0.000998
988.033672,0.000792
988.515874,0.000739
988.998077,0.000823
989.480280,0.000828
989.962483,0.000813
990.444686,0.000776
990.926889,0.000669
991.409092,0.000622
991.891295,0.000562
992.373497,0.000260
992.855700,0.000171
993.337903,0.000513
993.820106,0.000816
994.302309,0.000779
994.784512,0.000381
995.266715,0.000044
995.748917,0.000040
996.231120,0.000096
996.713323,0.000154
997.195526,0.000379
997.677729,0.000417
998.159932,0.000073
998.642135,-0.000007
999.124338,0.000040
999.606540,-0.000099
1000.088743,0.000022
1000.570946,0.000301
1001.053149,0.000535
1001.535352,0.000435
1002.017555,0.000133
1002.499758,0.000252
1002.981960,0.000258
1003.464163,0.000091
1003.946366,0.000246
1004.428569,0.000361
1004.910772,0.000323
1005.392975,0.000162
1005.875178,0.000120
1006.357381,0.000308
1006.839583,0.000204
1007.321786,0.000049
1007.803989,0.000205
1008.286192,0.000395
1008.768395,0.000458
1009.250598,0.000187
1009.732801,-0.000274
1010.215003,-0.000386
1010.697206,-0.000189
1011.179409,-0.000050
1011.661612,0.000051
1012.143815,0.000276
1012.626018,0.000404
1013.108221,0.000324
1013.590423,0.000236
1014.072626,0.000052
1014.554829,-0.000136
1015.037032,-0.000166
1015.519235,-0.000155
1016.001438,0.000008
1016.483641,0.000096
1016.965844,0.000006
1017.448046,0.000117
1017.930249,0.000041
1018.412452,-0.000239
1018.894655,-0.000133
1019.376858,0.000050
1019.859061,0.000004
1020.341264,-0.000089
1020.823466,-0.000155
1021.305669,-0.000100
1021.787872,0.000020
1022.270075,0.000029
1022.752278,-0.000095
1023.234481,-0.000240
1023.716684,-0.000204
1024.198887,-0.000006
1024.681089,0.000030
1025.163292,-0.000110
1025.645495,-0.000093
1026.127698,0.000027
1026.609901,-0.000060
1027.092104,-0.000257
1027.574307,-0.000323
1028.056509,-0.000213
1028.538712,-0.000017
1029.020915,0.000035
1029.503118,-0.000136
1029.985321,-0.000276
1030.467524,-0.000207
1030.949727,-0.000085
1031.431930,0.000001
1031.914132,0.000019
1032.396335,-0.000117
1032.878538,-0.000134
1033.360741,-0.000063
1033.842944,-0.000238
1034.325147,-0.000337
1034.807350,-0.000220
1035.289552,-0.000255
1035.771755,-0.000393
1036.253958,-0.000303
1036.736161,-0.000193
1037.218364,-0.000332
1037.700567,-0.000346
1038.182770,-0.000194
1038.664973,-0.000101
1039.147175,-0.000099
1039.629378,-0.000263
1040.111581,-0.000332
1040.593784,-0.000303
1041.075987,-0.000352
1041.558190,-0.000280
1042.040393,-0.000099
1042.522595,0.000039
1043.004798,-0.000039
1043.487001,-0.000166
1043.969204,-0.000054
1044.451407,0.000019
1044.933610,-0.000034
1045.415813,-0.000039
1045.898015,-0.000090
1046.380218,-0.000263
1046.862421,-0.000368
1047.344624,-0.000218
1047.826827,-0.000071
1048.309030,-0.000130
1048.791233,-0.000223
1049.273436,-0.000289
1049.755638,-0.000292
1050.237841,-0.000187
1050.720044,-0.000134
1051.202247,-0.000174
1051.684450,-0.000222
1052.166653,-0.000252
1052.648856,-0.000241
1053.131058,-0.000198
1053.613261,-0.000123
1054.095464,-0.000140
1054.577667,-0.000345
1055.059870,-0.000486
1055.542073,-0.000432
1056.024276,-0.000265
1056.506479,-0.000100
1056.988681,-0.000107
1057.470884,-0.000251
1057.953087,-0.000415
1058.435290,-0.000453
1058.917493,-0.000353
1059.399696,-0.000374
1059.881899,-0.000475
1060.364101,-0.000411
1060.846304,-0.000215
1061.328507,-0.000063
1061.810710,-0.000058
1062.292913,-0.000157
1062.775116,-0.000227
1063.257319,-0.000243
1063.739522,-0.000276
1064.221724,-0.000299
1064.703927,-0.000223
1065.186130,-0.000065
1065.668333,-0.000044
1066.150536,-0.000153
1066.632739,-0.000110
1067.114942,-0.000130
1067.597144,-0.000266
1068.079347,-0.000188
1068.561550,-0.000094
1069.043753,-0.000088
1069.525956,-0.000107
1070.008159,-0.000253
1070.490362,-0.000325
1070.972564,-0.000143
1071.454767,0.000027
1071.936970,-0.000044
1072.419173,-0.000098
1072.901376,-0.000015
1073.383579,-0.000086
1073.865782,-0.000204
1074.347985,-0.000094
1074.830187,0.000083
1075.312390,0.000076
1075.794593,0.000007
1076.276796,0.000050
1076.758999,0.000093
1077.241202,0.000081
1077.723405,0.000019
1078.205607,0.000002
1078.687810,0.000083
1079.170013,-0.000005
1079.652216,-0.000114
1080.134419,-0.000022
1080.616622,0.000025
1081.098825,0.000052
1081.581028,0.000106
1082.063230,0.000095
1082.545433,0.000032
1083.027636,-0.000043
1083.509839,-0.000053
1083.992042,-0.000034
1084.474245,0.000043
1084.956448,0.000114
1085.438650,0.000083
1085.920853,0.000107
1086.403056,0.000040
1086.885259,-0.000084
1087.367462,-0.000011
1087.849665,0.000051
1088.331868,0.000058
1088.814071,0.000116
1089.296273,0.000133
1089.778476,0.000084
1090.260679,0.000024
1090.742882,-0.000023
1091.225085,-0.000079
1091.707288,-0.000066
1092.189491,0.000045
1092.671693,0.000065
1093.153896,-0.000058
1093.636099,-0.000097
1094.118302,-0.000034
1094.600505,-0.000088
1095.082708,-0.000147
1095.564911,0.000013
1096.047114,0.000252
1096.529316,0.000310
1097.011519,0.000212
1097.493722,0.000095
1097.975925,0.000026
1098.458128,0.000079
1098.940331,0.000130
1099.422534,0.000060
1099.904736,0.000010
1100.386939,0.000067
1100.869142,0.000060
1101.351345,-0.000095
1101.833548,-0.000088
1102.315751,0.000076
1102.797954,0.000040
1103.280156,-0.000084
1103.762359,-0.000129
1104.244562,-0.000175
1104.726765,-0.000157
1105.208968,-0.000037
1105.691171,0.000033
1106.173374,0.000021
1106.655577,0.000025
1107.137779,-0.000007
1107.619982,-0.000060
1108.102185,-0.000036
1108.584388,0.000071
1109.066591,0.000162
1109.548794,0.000093
1110.030997,0.000015
1110.513199,0.000032
1110.995402,0.000033
1111.477605,0.000064
1111.959808,0.000072
1112.442011,0.000052
1112.924214,0.000118
1113.406417,0.000134
1113.888620,0.000077
1114.370822,0.000077
1114.853025,0.000103
1115.335228,0.000156
1115.817431,0.000185
1116.299634,0.000076
1116.781837,-0.000010
1117.264040,-0.000007
1117.746242,-0.000052
1118.228445,-0.000033
1118.710648,0.000092
1119.192851,0.000089
1119.675054,-0.000043
1120.157257,-0.000097
1120.639460,-0.000093
1121.121663,-0.000042
1121.603865,0.000073
1122.086068,0.000061
1122.568271,-0.000032
1123.050474,-0.000059
1123.532677,-0.000030
1124.014880,0.000101
1124.497083,0.000210
1124.979285,0.000166
1125.461488,0.000145
1125.943691,0.000191
1126.425894,0.000114
1126.908097,0.000032
1127.390300,0.000070
1127.872503,0.000059
1128.354706,0.000068
1128.836908,0.000044
1129.319111,-0.000081
1129.801314,-0.000092
1130.283517,-0.000048
1130.765720,0.000021
1131.247923,0.000108
1131.730126,0.000138
1132.212328,0.000178
1132.694531,0.000155
1133.176734,0.000135
1133.658937,0.000205
1134.141140,0.000139
1134.623343,-0.000004
1135.105546,0.000038
1135.587748,0.000056
1136.069951,-0.000100
1136.552154,-0.000096
1137.034357,0.000079
1137.516560,0.000134
1137.998763,0.000031
1138.480966,-0.000091
1138.963169,-0.000047
1139.445371,0.000064
1139.927574,-0.000027
1140.409777,-0.000154
1140.891980,-0.000090
1141.374183,-0.000009
1141.856386,0.000036
1142.338589,0.000073
1142.820791,0.000034
1143.302994,0.000059
1143.785197,0.000136
1144.267400,0.000100
1144.749603,-0.000010
1145.231806,-0.000116
1145.714009,-0.000133
1146.196212,-0.000069
1146.678414,-0.000007
1147.160617,0.000027
1147.642820,-0.000026
1148.125023,-0.000076
1148.607226,0.000000
1149.089429,0.000078
1149.571632,0.000039
1150.053834,0.000008
1150.536037,0.000040
1151.018240,0.000057
1151.500443,0.000073
1151.982646,0.000042
1152.464849,0.000010
1152.947052,0.000031
1153.429255,-0.000000
1153.911457,-0.000052
1154.393660,-0.000084
1154.875863,-0.000016
1155.358066,0.000104
1155.840269,0.000062
1156.322472,0.000008
1156.804675,-0.000009
1157.286877,-0.000075
1157.769080,-0.000101
1158.251283,-0.000079
1158.733486,0.000047
1159.215689,0.000127
1159.697892,0.000042
1160.180095,0.000014
1160.662298,-0.000020
1161.144500,-0.000091
1161.626703,-0.000006
1162.108906,0.000050
1162.591109,-0.000107
1163.073312,-0.000196
1163.555515,-0.000056
1164.037718,0.000093
1164.519920,0.000198
1165.002123,0.000283
1165.484326,0.000201
1165.966529,0.000042
1166.448732,0.000060
1166.930935,0.000145
1167.413138,0.000111
1167.895340,0.000074
1168.377543,0.000077
1168.859746,0.000106
1169.341949,0.000134
1169.824152,0.000096
1170.306355,0.000163
1170.788558,0.000239
1171.270761,0.000095
1171.752963,-0.000021
1172.235166,-0.000007
1172.717369,-0.000010
1173.199572,-0.000023
1173.681775,-0.000048
1174.163978,-0.000022
1174.646181,0.000043
1175.128383,0.000009
1175.610586,0.000026
1176.092789,0.000148
1176.574992,0.000185
1177.057195,0.000144
1177.539398,0.000050
1178.021601,-0.000091
1178.503804,-0.000182
1178.986006,-0.000158
1179.468209,-0.000036
1179.950412,0.000007
1180.432615,-0.000049
1180.914818,-0.000031
1181.397021,0.000071
1181.879224,0.000123
1182.361426,-0.000016
1182.843629,-0.000172
1183.325832,-0.000105
1183.808035,-0.000005
1184.290238,0.000010
1184.772441,0.000006
1185.254644,0.000034
1185.736847,0.000156
1186.219049,0.000164
1186.701252,0.000006
1187.183455,-0.000083
1187.665658,-0.000027
1188.147861,0.000159
1188.630064,0.000244
1189.112267,0.000137
1189.594469,-0.000004
1190.076672,-0.000098
1190.558875,-0.000005
1191.041078,0.000137
1191.523281,0.000186
1192.005484,0.000246
1192.487687,0.000234
1192.969889,0.000204
1193.452092,0.000232
1193.934295,0.000195
1194.416498,0.000115
1194.898701,0.000088
1195.380904,0.000093
1195.863107,0.000082
1196.345310,0.000111
1196.827512,0.000056
1197.309715,-0.000087
1197.791918,-0.000092
1198.274121,-0.000135
1198.756324,-0.000239
1199.238527,-0.000101
1199.720730,0.000123
1200.202932,0.000143
1200.685135,-0.000005
1201.167338,-0.000104
1201.649541,-0.000096
1202.131744,-0.000017
1202.613947,0.000105
1203.096150,0.000082
1203.578353,-0.000041
1204.060555,-0.000061
1204.542758,-0.000062
1205.024961,-0.000026
1205.507164,-0.000006
1205.989367,-0.000106
1206.471570,-0.000111
1206.953773,-0.000041
1207.435975,-0.000024
1207.918178,0.000018
1208.400381,-0.000046
1208.882584,-0.000189
1209.364787,-0.000154
1209.846990,-0.000030
1210.329193,0.000022
1210.811396,-0.000028
1211.293598,-0.000050
1211.775801,0.000036
1212.258004,-0.000008
1212.740207,-0.000021
1213.222410,0.000078
1213.704613,-0.000056
1214.186816,-0.000140
1214.669018,-0.000039
1215.151221,-0.000045
1215.633424,-0.000036
1216.115627,-0.000073
1216.597830,-0.000180
1217.080033,-0.000058
1217.562236,0.000095
1218.044439,0.000038
1218.526641,0.000011
1219.008844,0.000097
1219.491047,0.000122
1219.973250,0.000088
1220.455453,0.000085
1220.937656,0.000120
1221.419859,0.000173
1221.902061,0.000238
1222.384264,0.000274
1222.866467,0.000233
1223.348670,0.000164
1223.830873,0.000123
1224.313076,0.000138
1224.795279,0.000198
1225.277481,0.000230
1225.759684,0.000251
1226.241887,0.000313
1226.724090,0.000346
1227.206293,0.000363
1227.688496,0.000453
1228.170699,0.000498
1228.652902,0.000480
1229.135104,0.000584
1229.617307,0.000637
1230.099510,0.000559
1230.581713,0.000591
1231.063916,0.000655
1231.546119,0.000632
1232.028322,0.000649
1232.510524,0.000846
1232.992727,0.001070
1233.474930,0.001045
1233.957133,0.001024
1234.439336,0.001117
1234.921539,0.001082
1235.403742,0.001118
1235.885945,0.001266
1236.368147,0.001269
1236.850350,0.001279
1237.332553,0.001386
1237.814756,0.001457
1238.296959,0.001599
1238.779162,0.001789
1239.261365,0.001835
1239.743567,0.001876
1240.225770,0.001964
1240.707973,0.001944
1241.190176,0.001979
1241.672379,0.002163
1242.154582,0.002264
1242.636785,0.002256
1243.118988,0.002340
1243.601190,0.002548
1244.083393,0.002772
1244.565596,0.002811
1245.047799,0.002698
1245.530002,0.002749
1246.012205,0.002897
1246.494408,0.002983
1246.976610,0.003081
1247.458813,0.003176
1247.941016,0.003236
1248.423219,0.003196
1248.905422,0.003160
1249.387625,0.003313
1249.869828,0.003511
1250.352031,0.003611
1250.834233,0.003643
1251.316436,0.003682
1251.798639,0.003739
1252.280842,0.003689
1252.763045,0.003563
1253.245248,0.003531
1253.727451,0.003547
1254.209653,0.003415
1254.691856,0.003173
1255.174059,0.003045
1255.656262,0.003021
1256.138465,0.002906
1256.620668,0.002727
1257.102871,0.002596
1257.585073,0.002458
1258.067276,0.002363
1258.549479,0.002298
1259.031682,0.002169
1259.513885,0.002144
1259.996088,0.002256
1260.478291,0.002356
1260.960494,0.002433
1261.442696,0.002519
1261.924899,0.002733
1262.407102,0.003355
1262.889305,0.004690
1263.371508,0.006101
1263.853711,0.006232
1264.335914,0.005214
1264.818116,0.004112
1265.300319,0.003355
1265.782522,0.002988
1266.264725,0.002733
1266.746928,0.002513
1267.229131,0.002536
1267.711334,0.002630
1268.193537,0.002698
1268.675739,0.002837
1269.157942,0.002998
1269.640145,0.003148
1270.122348,0.003324
1270.604551,0.003497
1271.086754,0.003544
1271.568957,0.003550
1272.051159,0.003664
1272.533362,0.003739
1273.015565,0.003773
1273.497768,0.003836
1273.979971,0.003773
1274.462174,0.003743
1274.944377,0.003855
1275.426580,0.003773
1275.908782,0.003574
1276.390985,0.003603
1276.873188,0.003686
1277.355391,0.003543
1277.837594,0.003367
1278.319797,0.003360
1278.802000,0.003347
1279.284202,0.003205
1279.766405,0.003046
1280.248608,0.003020
1280.730811,0.003056
1281.213014,0.002956
1281.695217,0.002818
1282.177420,0.002738
1282.659622,0.002613
1283.141825,0.002392
1283.624028,0.002181
1284.106231,0.002135
1284.588434,0.002079
1285.070637,0.001977
1285.552840,0.001941
1286.035043,0.001771
1286.517245,0.001620
1286.999448,0.001596
1287.481651,0.001457
1287.963854,0.001368
1288.446057,0.001387
1288.928260,0.001306
1289.410463,0.001215
1289.892665,0.001205
1290.374868,0.001092
1290.857071,0.000845
1291.339274,0.000770
1291.821477,0.000880
1292.303680,0.000884
1292.785883,0.000785
1293.268086,0.000754
1293.750288,0.000736
1294.232491,0.000648
1294.714694,0.000620
1295.196897,0.000637
1295.679100,0.000535
1296.161303,0.000432
1296.643506,0.000407
1297.125708,0.000307
1297.607911,0.000259
1298.090114,0.000386
1298.572317,0.000392
1299.054520,0.000259
1299.536723,0.000191
1300.018926,0.000158
1300.501129,0.000228
1300.983331,0.000254
1301.465534,0.000094
1301.947737,0.000056
1302.429940,0.000165
1302.912143,0.000217
1303.394346,0.000263
1303.876549,0.000326
1304.358751,0.000314
1304.840954,0.000273
1305.323157,0.000223
1305.805360,0.000097
1306.287563,0.000041
1306.769766,0.000057
1307.251969,0.000015
1307.734172,0.000025
1308.216374,0.000109
1308.698577,0.000159
1309.180780,0.000099
1309.662983,0.000034
1310.145186,0.000013
1310.627389,-0.000067
1311.109592,0.000038
1311.591794,0.000267
1312.073997,0.000139
1312.556200,-0.000104
1313.038403,-0.000087
1313.520606,-0.000116
1314.002809,-0.000280
1314.485012,-0.000219
1314.967214,0.000037
1315.449417,0.000175
1315.931620,0.000161
1316.413823,0.000110
1316.896026,0.000149
1317.378229,0.000258
1317.860432,0.000254
1318.342635,0.000120
1318.824837,0.000052
1319.307040,0.000221
1319.789243,0.000442
1320.271446,0.000479
1320.753649,0.000465
1321.235852,0.000496
1321.718055,0.000526
1322.200257,0.000540
1322.682460,0.000535
1323.164663,0.000578
1323.646866,0.000602
1324.129069,0.000587
1324.611272,0.000599
1325.093475,0.000542
1325.575678,0.000472
1326.057880,0.000496
1326.540083,0.000618
1327.022286,0.000740
1327.504489,0.000715
1327.986692,0.000680
1328.468895,0.000586
1328.951098,0.000484
1329.433300,0.000686
1329.915503,0.000869
1330.397706,0.000872
1330.879909,0.000878
1331.362112,0.000860
1331.844315,0.000855
1332.326518,0.000779
1332.808721,0.000819
1333.290923,0.001047
1333.773126,0.001054
1334.255329,0.000952
1334.737532,0.000842
1335.219735,0.000702
1335.701938,0.000758
1336.184141,0.000772
1336.666343,0.000625
1337.148546,0.000540
1337.630749,0.000444
1338.112952,0.000342
1338.595155,0.000299
1339.077358,0.000322
1339.559561,0.000384
1340.041764,0.000356
1340.523966,0.000403
1341.006169,0.000606
1341.488372,0.000787
1341.970575,0.000938
1342.452778,0.000898
1342.934981,0.000684
1343.417184,0.000628
1343.899386,0.000709
1344.381589,0.000718
1344.863792,0.000673
1345.345995,0.000652
1345.828198,0.000615
1346.310401,0.000604
1346.792604,0.000699
1347.274806,0.000857
1347.757009,0.000972
1348.239212,0.000951
1348.721415,0.000887
1349.203618,0.000797
1349.685821,0.000678
1350.168024,0.000750
1350.650227,0.000823
1351.132429,0.000643
1351.614632,0.000490
1352.096835,0.000572
1352.579038,0.000767
1353.061241,0.000903
1353.543444,0.000924
1354.025647,0.000878
1354.507849,0.000806
1354.990052,0.000757
1355.472255,0.000718
1355.954458,0.000689
1356.436661,0.000797
1356.918864,0.000906
1357.401067,0.000805
1357.883270,0.000606
1358.365472,0.000469
1358.847675,0.000412
1359.329878,0.000314
1359.812081,0.000268
1360.294284,0.000323
1360.776487,0.000124
1361.258690,-0.000128
1361.740892,-0.000026
1362.223095,0.000119
1362.705298,-0.000093
1363.187501,-0.000378
1363.669704,0.000008
1364.151907,0.000613
1364.634110,0.000669
1365.116313,0.000486
1365.598515,0.000450
1366.080718,0.000658
1366.562921,0.000867
1367.045124,0.000685
1367.527327,0.000424
1368.009530,0.000333
1368.491733,0.000227
1368.973935,0.000181
1369.456138,0.000260
1369.938341,0.000394
1370.420544,0.000433
1370.902747,0.000253
1371.384950,0.000164
1371.867153,0.000196
1372.349355,0.000176
1372.831558,0.000159
1373.313761,-0.000211
1373.795964,-0.000578
1374.278167,-0.000215
1374.760370,0.000033
1375.242573,-0.000079
1375.724776,0.000172
1376.206978,0.000403
1376.689181,0.000253
1377.171384,0.000198
1377.653587,0.000265
1378.135790,0.000241
1378.617993,0.000335
1379.100196,0.000481
1379.582398,0.000537
1380.064601,0.000615
1380.546804,0.000686
1381.029007,0.000663
1381.511210,0.000535
1381.993413,0.000370
1382.475616,0.000288
1382.957819,0.000302
1383.440021,0.000438
1383.922224,0.000605
1384.404427,0.000633
1384.886630,0.000677
1385.368833,0.000779
1385.851036,0.000595
1386.333239,0.000286
1386.815441,-0.000034
1387.297644,-0.000507
1387.779847,-0.000252
1388.262050,0.000723
1388.744253,0.001311
1389.226456,0.001465
1389.708659,0.001431
1390.190862,0.001384
1390.673064,0.001358
1391.155267,0.001299
1391.637470,0.001331
1392.119673,0.001461
1392.601876,0.001450
1393.084079,0.001173
1393.566282,0.000922
1394.048484,0.000409
1394.530687,-0.000150
1395.012890,0.000425
1395.495093,0.000982
1395.977296,0.000953
1396.459499,0.001381
1396.941702,0.001711
1397.423905,0.001372
1397.906107,0.001014
1398.388310,0.000856
1398.870513,0.000489
1399.352716,0.000456
1399.834919,0.001391
1400.317122,0.002068
1400.799325,0.002042
1401.281527,0.002155
1401.763730,0.002292
1402.245933,0.001983
1402.728136,0.001782
1403.210339,0.002048
1403.692542,0.002127
1404.174745,0.001788
1404.656947,0.001439
1405.139150,0.001307
1405.621353,0.001615
1406.103556,0.002088
1406.585759,0.002222
1407.067962,0.002109
1407.550165,0.002104
1408.032368,0.002307
1408.514570,0.002459
1408.996773,0.002303
1409.478976,0.002128
1409.961179,0.002179
1410.443382,0.002268
1410.925585,0.002310
1411.407788,0.002250
1411.889990,0.002160
1412.372193,0.002225
1412.854396,0.002254
1413.336599,0.002244
1413.818802,0.002374
1414.301005,0.002453
1414.783208,0.002338
1415.265411,0.002087
1415.747613,0.001917
1416.229816,0.001940
1416.712019,0.001727
1417.194222,0.001218
1417.676425,0.000915
1418.158628,0.000820
1418.640831,0.000367
1419.123033,-0.000610
1419.605236,-0.000622
1420.087439,0.000887
1420.569642,0.001962
1421.051845,0.002166
1421.534048,0.001997
1422.016251,0.001935
1422.498454,0.002053
1422.980656,0.001981
1423.462859,0.001694
1423.945062,0.001516
1424.427265,0.001722
1424.909468,0.002069
1425.391671,0.002193
1425.873874,0.002164
1426.356076,0.002058
1426.838279,0.002015
1427.320482,0.002112
1427.802685,0.002234
1428.284888,0.002261
1428.767091,0.002120
1429.249294,0.001831
1429.731497,0.001360
1430.213699,0.001259
1430.695902,0.001800
1431.178105,0.002082
1431.660308,0.002051
1432.142511,0.002176
1432.624714,0.002169
1433.106917,0.002060
1433.589119,0.002067
1434.071322,0.001917
1434.553525,0.001670
1435.035728,0.001389
1435.517931,0.000950
1436.000134,0.000113
1436.482337,-0.001293
1436.964539,-0.001277
1437.446742,0.000682
1437.928945,0.001802
1438.411148,0.002058
1438.893351,0.002302
1439.375554,0.002389
1439.857757,0.002197
1440.339960,0.001989
1440.822162,0.001962
1441.304365,0.002004
1441.786568,0.001989
1442.268771,0.002034
1442.750974,0.002185
1443.233177,0.002371
1443.715380,0.002508
1444.197582,0.002450
1444.679785,0.002207
1445.161988,0.002050
1445.644191,0.002036
1446.126394,0.001872
1446.608597,0.001704
1447.090800,0.001684
1447.573003,0.001209
1448.055205,0.000775
1448.537408,0.001436
1449.019611,0.002121
1449.501814,0.002207
1449.984017,0.002213
1450.466220,0.002154
1450.948423,0.002096
1451.430625,0.002040
1451.912828,0.001816
1452.395031,0.001780
1452.877234,0.001954
1453.359437,0.001958
1453.841640,0.001742
1454.323843,0.001364
1454.806046,0.000705
1455.288248,-0.000073
1455.770451,-0.000451
1456.252654,-0.001350
1456.734857,-0.003216
1457.217060,-0.002478
1457.699263,-0.000540
1458.181466,-0.000171
1458.663668,0.000089
1459.145871,0.000832
1459.628074,0.001455
1460.110277,0.001936
1460.592480,0.002089
1461.074683,0.002174
1461.556886,0.002278
1462.039089,0.002146
1462.521291,0.002122
1463.003494,0.002094
1463.485697,0.001737
1463.967900,0.001324
1464.450103,0.000567
1464.932306,-0.000127
1465.414509,0.000738
1465.896711,0.001979
1466.378914,0.002396
1466.861117,0.002510
1467.343320,0.002474
1467.825523,0.002292
1468.307726,0.002313
1468.789929,0.002331
1469.272131,0.002149
1469.754334,0.002014
1470.236537,0.001771
1470.718740,0.001249
1471.200943,0.000544
1471.683146,-0.000628
1472.165349,-0.001303
1472.647552,-0.000407
1473.129754,-0.000105
1473.611957,-0.000241
1474.094160,0.000942
1474.576363,0.001865
1475.058566,0.001854
1475.540769,0.001470
1476.022972,0.000742
1476.505174,0.000647
1476.987377,0.001575
1477.469580,0.002299
1477.951783,0.002515
1478.433986,0.002494
1478.916189,0.002341
1479.398392,0.002255
1479.880595,0.002355
1480.362797,0.002374
1480.845000,0.002108
1481.327203,0.001942
1481.809406,0.002150
1482.291609,0.002375
1482.773812,0.002492
1483.256015,0.002538
1483.738217,0.002446
1484.220420,0.002393
1484.702623,0.002425
1485.184826,0.002388
1485.667029,0.002076
1486.149232,0.001679
1486.631435,0.001454
1487.113638,0.001027
1487.595840,0.000939
1488.078043,0.001500
1488.560246,0.001586
1489.042449,0.001035
1489.524652,0.000499
1490.006855,0.000457
1490.489058,0.000638
1490.971260,0.000930
1491.453463,0.001823
1491.935666,0.002579
1492.417869,0.002665
1492.900072,0.002620
1493.382275,0.002642
1493.864478,0.002694
1494.346680,0.002590
1494.828883,0.002183
1495.311086,0.001805
1495.793289,0.001052
1496.275492,0.000179
1496.757695,0.001036
1497.239898,0.002286
1497.722101,0.002548
1498.204303,0.001989
1498.686506,0.001075
1499.168709,0.001394
1499.650912,0.002627
1500.133115,0.003092
1500.615318,0.003179
1501.097521,0.003229
1501.579723,0.003091
1502.061926,0.003168
1502.544129,0.003392
1503.026332,0.003410
1503.508535,0.003206
1503.990738,0.002734
1504.472941,0.002110
1504.955144,0.001086
1505.437346,-0.000884
1505.919549,-0.001843
1506.401752,-0.001256
1506.883955,-0.001691
1507.366158,-0.001073
1507.848361,0.000917
1508.330564,0.001608
1508.812766,0.001944
1509.294969,0.002478
1509.777172,0.002626
1510.259375,0.003045
1510.741578,0.003634
1511.223781,0.003806
1511.705984,0.003484
1512.188187,0.002844
1512.670389,0.003035
1513.152592,0.003859
1513.634795,0.004097
1514.116998,0.003969
1514.599201,0.003645
1515.081404,0.003232
1515.563607,0.003239
1516.045809,0.002996
1516.528012,0.002198
1517.010215,0.001729
1517.492418,0.001872
1517.974621,0.002766
1518.456824,0.003764
1518.939027,0.003980
1519.421230,0.003508
1519.903432,0.002436
1520.385635,0.001471
1520.867838,0.000935
1521.350041,0.000597
1521.832244,0.001764
1522.314447,0.002564
1522.796650,0.002449
1523.278852,0.003333
1523.761055,0.004185
1524.243258,0.004106
1524.725461,0.003641
1525.207664,0.002864
1525.689867,0.002747
1526.172070,0.003828
1526.654272,0.004424
1527.136475,0.004084
1527.618678,0.003986
1528.100881,0.004311
1528.583084,0.004509
1529.065287,0.004894
1529.547490,0.005334
1530.029693,0.005415
1530.511895,0.005395
1530.994098,0.005280
1531.476301,0.004773
1531.958504,0.004385
1532.440707,0.004162
1532.922910,0.003402
1533.405113,0.002507
1533.887315,0.002562
1534.369518,0.003723
1534.851721,0.004827
1535.333924,0.005134
1535.816127,0.005172
1536.298330,0.005203
1536.780533,0.004990
1537.262736,0.004589
1537.744938,0.003986
1538.227141,0.002899
1538.709344,0.000910
1539.191547,-0.000563
1539.673750,0.000136
1540.155953,0.000545
1540.638156,0.001163
1541.120358,0.002532
1541.602561,0.002303
1542.084764,0.001189
1542.566967,0.002357
1543.049170,0.003918
1543.531373,0.004136
1544.013576,0.004285
1544.495779,0.004348
1544.977981,0.003706
1545.460184,0.003816
1545.942387,0.004949
1546.424590,0.005621
1546.906793,0.005769
1547.388996,0.005862
1547.871199,0.005898
1548.353401,0.005859
1548.835604,0.005664
1549.317807,0.005243
1549.800010,0.004835
1550.282213,0.004853
1550.764416,0.005497
1551.246619,0.006114
1551.728822,0.006201
1552.211024,0.006034
1552.693227,0.005811
1553.175430,0.005576
1553.657633,0.005005
1554.139836,0.003917
1554.622039,0.003934
1555.104242,0.005364
1555.586444,0.005988
1556.068647,0.005641
1556.550850,0.005128
1557.033053,0.003831
1557.515256,0.001717
1557.997459,0.000557
1558.479662,0.000539
1558.961864,0.001610
1559.444067,0.002498
1559.926270,0.002231
1560.408473,0.003590
1560.890676,0.006403
1561.372879,0.007909
1561.855082,0.008559
1562.337285,0.008960
1562.819487,0.009138
1563.301690,0.009213
1563.783893,0.009344
1564.266096,0.009435
1564.748299,0.009318
1565.230502,0.009665
1565.712705,0.010653
1566.194907,0.011338
1566.677110,0.011684
1567.159313,0.012027
1567.641516,0.012291
1568.123719,0.012430
1568.605922,0.012301
1569.088125,0.011923
1569.570328,0.011658
1570.052530,0.012608
1570.534733,0.014665
1571.016936,0.016177
1571.499139,0.017138
1571.981342,0.017924
1572.463545,0.018451
1572.945748,0.019199
1573.427950,0.020140
1573.910153,0.020829
1574.392356,0.021251
1574.874559,0.021617
1575.356762,0.022063
1575.838965,0.021980
1576.321168,0.022329
1576.803371,0.025071
1577.285573,0.027851
1577.767776,0.029756
1578.249979,0.031327
1578.732182,0.032586
1579.214385,0.033869
1579.696588,0.035628
1580.178791,0.037406
1580.660993,0.038741
1581.143196,0.040084
1581.625399,0.042084
1582.107602,0.044340
1582.589805,0.045916
1583.072008,0.047044
1583.554211,0.048748
1584.036413,0.051229
1584.518616,0.053688
1585.000819,0.055410
1585.483022,0.056973
1585.965225,0.059654
1586.447428,0.062866
1586.929631,0.064645
1587.411834,0.065356
1587.894036,0.067292
1588.376239,0.070805
1588.858442,0.073622
1589.340645,0.074736
1589.822848,0.076545
1590.305051,0.080728
1590.787254,0.084723
1591.269456,0.085342
1591.751659,0.084965
1592.233862,0.088051
1592.716065,0.092183
1593.198268,0.092883
1593.680471,0.092921
1594.162674,0.096594
1594.644877,0.101649
1595.127079,0.102797
1595.609282,0.100803
1596.091485,0.101892
1596.573688,0.105846
1597.055891,0.105827
1597.538094,0.103835
1598.020297,0.107205
1598.502499,0.113293
1598.984702,0.113870
1599.466905,0.109226
1599.949108,0.107743
1600.431311,0.110284
1600.913514,0.109375
1601.395717,0.106862
1601.877920,0.110566
1602.360122,0.116464
1602.842325,0.113483
1603.324528,0.104531
1603.806731,0.102752
1604.288934,0.106150
1604.771137,0.104575
1605.253340,0.103721
1605.735542,0.109336
1606.217745,0.107671
1606.699948,0.095105
1607.182151,0.089186
1607.664354,0.093326
1608.146557,0.099241
1608.628760,0.100341
1609.110963,0.091846
1609.593165,0.083183
1610.075368,0.080991
1610.557571,0.083473
1611.039774,0.088974
1611.521977,0.085031
1612.004180,0.071877
1612.486383,0.069117
1612.968585,0.078060
1613.450788,0.076537
1613.932991,0.064226
1614.415194,0.064196
1614.897397,0.068153
1615.379600,0.061284
1615.861803,0.055512
1616.344005,0.050673
1616.826208,0.043488
1617.308411,0.044680
1617.790614,0.050594
1618.272817,0.057550
1618.755020,0.065923
1619.237223,0.075456
1619.719426,0.083110
1620.201628,0.087953
1620.683831,0.096062
1621.166034,0.104855
1621.648237,0.107608
1622.130440,0.111136
1622.612643,0.120602
1623.094846,0.125932
1623.577048,0.126998
1624.059251,0.135076
1624.541454,0.139751
1625.023657,0.135282
1625.505860,0.138778
1625.988063,0.147417
1626.470266,0.142588
1626.952469,0.141027
1627.434671,0.150683
1627.916874,0.146555
1628.399077,0.141267
1628.881280,0.150573
1629.363483,0.147786
1629.845686,0.138582
1630.327889,0.145059
1630.810091,0.143703
1631.292294,0.132868
1631.774497,0.137131
1632.256700,0.135633
1632.738903,0.124049
1633.221106,0.126656
1633.703309,0.124152
1634.185512,0.111643
1634.667714,0.111758
1635.149917,0.107667
1635.632120,0.097936
1636.114323,0.101282
1636.596526,0.094897
1637.078729,0.086184
1637.560932,0.086412
1638.043134,0.080677
1638.525337,0.077427
1639.007540,0.078621
1639.489743,0.071909
1639.971946,0.069140
1640.454149,0.066867
1640.936352,0.058809
1641.418555,0.056466
1641.900757,0.052482
1642.382960,0.047223
1642.865163,0.046080
1643.347366,0.041426
1643.829569,0.038510
1644.311772,0.036751
1644.793975,0.032424
1645.276177,0.030694
1645.758380,0.027453
1646.240583,0.023887
1646.722786,0.022533
1647.204989,0.019601
1647.687192,0.018248
1648.169395,0.017661
1648.651597,0.016747
1649.133800,0.016205
1649.616003,0.015064
1650.098206,0.014305
1650.580409,0.013172
1651.062612,0.011733
1651.544815,0.010400
1652.027018,0.007573
1652.509220,0.004274
1652.991423,0.002836
1653.473626,0.003610
1653.955829,0.005261
1654.438032,0.005961
1654.920235,0.006823
1655.402438,0.008172
1655.884640,0.008674
1656.366843,0.008523
1656.849046,0.008405
1657.331249,0.008220
1657.813452,0.008038
1658.295655,0.008044
1658.777858,0.008089
1659.260061,0.008082
1659.742263,0.007978
1660.224466,0.007827
1660.706669,0.007724
1661.188872,0.007485
1661.671075,0.007052
1662.153278,0.006448
1662.635481,0.005578
1663.117683,0.005530
1663.599886,0.006677
1664.082089,0.007374
1664.564292,0.007359
1665.046495,0.007310
1665.528698,0.007286
1666.010901,0.007192
1666.493104,0.007077
1666.975306,0.006974
1667.457509,0.006645
1667.939712,0.006065
1668.421915,0.005560
1668.904118,0.004696
1669.386321,0.003922
1669.868524,0.004933
1670.350726,0.006320
1670.832929,0.006398
1671.315132,0.005711
1671.797335,0.005668
1672.279538,0.006437
1672.761741,0.006870
1673.243944,0.006789
1673.726146,0.006514
1674.208349,0.006071
1674.690552,0.005265
1675.172755,0.004020
1675.654958,0.004231
1676.137161,0.005993
1676.619364,0.006988
1677.101567,0.007293
1677.583769,0.007565
1678.065972,0.007584
1678.548175,0.007408
1679.030378,0.007301
1679.512581,0.007121
1679.994784,0.006809
1680.476987,0.006730
1680.959189,0.007090
1681.441392,0.007321
1681.923595,0.007000
1682.405798,0.006234
1682.888001,0.004942
1683.370204,0.003662
1683.852407,0.003316
1684.334610,0.003159
1684.816812,0.003100
1685.299015,0.004502
1685.781218,0.006154
1686.263421,0.006842
1686.745624,0.006830
1687.227827,0.006721
1687.710030,0.006555
1688.192232,0.006226
1688.674435,0.006114
1689.156638,0.006278
1689.638841,0.006255
1690.121044,0.006059
1690.603247,0.006071
1691.085450,0.006211
1691.567653,0.006275
1692.049855,0.006185
1692.532058,0.005894
1693.014261,0.005545
1693.496464,0.005165
1693.978667,0.004744
1694.460870,0.004286
1694.943073,0.003360
1695.425275,0.001773
1695.907478,0.000851
1696.389681,0.002471
1696.871884,0.004407
1697.354087,0.005348
1697.836290,0.006051
1698.318493,0.006774
1698.800696,0.006931
1699.282898,0.005710
1699.765101,0.002399
1700.247304,-0.001114
1700.729507,-0.001097
1701.211710,0.001303
1701.693913,0.003428
1702.176116,0.004281
1702.658318,0.004250
1703.140521,0.004153
1703.622724,0.004000
1704.104927,0.003481
1704.587130,0.003038
1705.069333,0.003552
1705.551536,0.004172
1706.033738,0.003894
1706.515941,0.003817
1706.998144,0.004677
1707.480347,0.005441
1707.962550,0.005841
1708.444753,0.006089
1708.926956,0.006197
1709.409159,0.006244
1709.891361,0.006113
1710.373564,0.006034
1710.855767,0.006292
1711.337970,0.006493
1711.820173,0.006579
1712.302376,0.006515
1712.784579,0.006230
1713.266781,0.005909
1713.748984,0.005377
1714.231187,0.004992
1714.713390,0.004747
1715.195593,0.004251
1715.677796,0.004435
1716.159999,0.004969
1716.642202,0.004608
1717.124404,0.003249
1717.606607,0.002309
1718.088810,0.002942
1718.571013,0.003348
1719.053216,0.003818
1719.535419,0.005001
1720.017622,0.005605
1720.499824,0.005626
1720.982027,0.005601
1721.464230,0.005448
1721.946433,0.005246
1722.428636,0.005141
1722.910839,0.005055
1723.393042,0.004851
1723.875245,0.004715
1724.357447,0.004793
1724.839650,0.004847
1725.321853,0.004807
1725.804056,0.004765
1726.286259,0.004698
1726.768462,0.004610
1727.250665,0.004566
1727.732867,0.004499
1728.215070,0.004303
1728.697273,0.004125
1729.179476,0.003949
1729.661679,0.003443
1730.143882,0.003066
1730.626085,0.003406
1731.108288,0.003786
1731.590490,0.003651
1732.072693,0.003288
1732.554896,0.002806
1733.037099,0.001665
1733.519302,0.000477
1734.001505,0.000348
1734.483708,0.000121
1734.965910,0.000828
1735.448113,0.002785
1735.930316,0.003778
1736.412519,0.003986
1736.894722,0.004080
1737.376925,0.003961
1737.859128,0.003777
1738.341330,0.003682
1738.823533,0.003519
1739.305736,0.002883
1739.787939,0.002048
1740.270142,0.002441
1740.752345,0.003633
1741.234548,0.004117
1741.716751,0.004074
1742.198953,0.004048
1742.681156,0.003803
1743.163359,0.003421
1743.645562,0.003471
1744.127765,0.003845
1744.609968,0.004051
1745.092171,0.004044
1745.574373,0.003906
1746.056576,0.003738
1746.538779,0.003590
1747.020982,0.003253
1747.503185,0.003057
1747.985388,0.003111
1748.467591,0.002796
1748.949794,0.002564
1749.431996,0.002890
1749.914199,0.003174
1750.396402,0.003082
1750.878605,0.002369
1751.360808,0.001739
1751.843011,0.002496
1752.325214,0.003508
1752.807416,0.003814
1753.289619,0.003876
1753.771822,0.003963
1754.254025,0.003988
1754.736228,0.003988
1755.218431,0.003890
1755.700634,0.003703
1756.182837,0.003426
1756.665039,0.002801
1757.147242,0.002630
1757.629445,0.003368
1758.111648,0.003874
1758.593851,0.003953
1759.076054,0.003909
1759.558257,0.003776
1760.040459,0.003591
1760.522662,0.003267
1761.004865,0.002899
1761.487068,0.002138
1761.969271,0.001444
1762.451474,0.002144
1762.933677,0.003080
1763.415880,0.003335
1763.898082,0.003397
1764.380285,0.003333
1764.862488,0.003217
1765.344691,0.003141
1765.826894,0.003005
1766.309097,0.002892
1766.791300,0.002746
1767.273502,0.002437
1767.755705,0.001806
1768.237908,0.001208
1768.720111,0.001562
1769.202314,0.002216
1769.684517,0.002214
1770.166720,0.001947
1770.648922,0.001482
1771.131125,0.000531
1771.613328,0.000190
1772.095531,0.000414
1772.577734,-0.000123
1773.059937,-0.000006
1773.542140,0.001409
1774.024343,0.002226
1774.506545,0.002329
1774.988748,0.002206
1775.470951,0.002010
1775.953154,0.002075
1776.435357,0.002316
1776.917560,0.002419
1777.399763,0.002470
1777.881965,0.002501
1778.364168,0.002417
1778.846371,0.002206
1779.328574,0.001956
1779.810777,0.001908
1780.292980,0.001840
1780.775183,0.001610
1781.257386,0.001867
1781.739588,0.002359
1782.221791,0.002402
1782.703994,0.002323
1783.186197,0.002312
1783.668400,0.002262
1784.150603,0.002273
1784.632806,0.002046
1785.115008,0.001790
1785.597211,0.002148
1786.079414,0.002525
1786.561617,0.002510
1787.043820,0.002548
1787.526023,0.002569
1788.008226,0.002450
1788.490429,0.002441
1788.972631,0.002428
1789.454834,0.002280
1789.937037,0.002154
1790.419240,0.001896
1790.901443,0.001270
1791.383646,0.000951
1791.865849,0.001094
1792.348051,0.000575
1792.830254,0.000031
1793.312457,0.000858
1793.794660,0.001768
1794.276863,0.002107
1794.759066,0.002255
1795.241269,0.002167
1795.723471,0.001983
1796.205674,0.002063
1796.687877,0.002352
1797.170080,0.002368
1797.652283,0.002154
1798.134486,0.002216
1798.616689,0.002257
1799.098892,0.001814
1799.581094,0.001223
1800.063297,0.001340
1800.545500,0.002083
1801.027703,0.002236
1801.509906,0.001854
1801.992109,0.001820
1802.474312,0.001955
1802.956514,0.002149
1803.438717,0.002402
1803.920920,0.002529
1804.403123,0.002820
1804.885326,0.003103
1805.367529,0.002893
1805.849732,0.002624
1806.331935,0.002767
1806.814137,0.002945
1807.296340,0.002796
1807.778543,0.002616
1808.260746,0.002885
1808.742949,0.003230
1809.225152,0.002885
1809.707355,0.002288
1810.189557,0.002127
1810.671760,0.002269
1811.153963,0.002542
1811.636166,0.002675
1812.118369,0.002910
1812.600572,0.003458
1813.082775,0.003413
1813.564978,0.002825
1814.047180,0.002761
1814.529383,0.003192
1815.011586,0.003290
1815.493789,0.002910
1815.975992,0.003037
1816.458195,0.003807
1816.940398,0.003767
1817.422600,0.002888
1817.904803,0.002640
1818.387006,0.003242
1818.869209,0.003721
1819.351412,0.003431
1819.833615,0.003336
1820.315818,0.004109
1820.798021,0.004124
1821.280223,0.003179
1821.762426,0.002862
1822.244629,0.003223
1822.726832,0.003524
1823.209035,0.003271
1823.691238,0.003295
1824.173441,0.004236
1824.655643,0.003966
1825.137846,0.002178
1825.620049,0.001706
1826.102252,0.003000
1826.584455,0.004034
1827.066658,0.003682
1827.548861,0.003535
1828.031063,0.004639
1828.513266,0.004233
1828.995469,0.002253
1829.477672,0.001442
1829.959875,0.001906
1830.442078,0.003005
1830.924281,0.003717
1831.406484,0.004472
1831.888686,0.005598
1832.370889,0.004744
1832.853092,0.003035
1833.335295,0.002869
1833.817498,0.003847
1834.299701,0.004941
1834.781904,0.004945
1835.264106,0.005345
1835.746309,0.006046
1836.228512,0.004503
1836.710715,0.002891
1837.192918,0.003033
1837.675121,0.004279
1838.157324,0.005381
1838.639527,0.005333
1839.121729,0.006037
1839.603932,0.006151
1840.086135,0.004139
1840.568338,0.003128
1841.050541,0.003628
1841.532744,0.004816
1842.014947,0.005610
1842.497149,0.005728
1842.979352,0.006347
1843.461555,0.004957
1843.943758,0.001849
1844.425961,0.000876
1844.908164,0.002550
1845.390367,0.004822
1845.872570,0.005914
1846.354772,0.006659
1846.836975,0.006806
1847.319178,0.004545
1847.801381,0.002812
1848.283584,0.003162
1848.765787,0.004516
1849.247990,0.006026
1849.730192,0.006759
1850.212395,0.007140
1850.694598,0.005812
1851.176801,0.003566
1851.659004,0.003206
1852.141207,0.003944
1852.623410,0.005202
1853.105613,0.006627
1853.587815,0.007511
1854.070018,0.006836
1854.552221,0.004392
1855.034424,0.003033
1855.516627,0.003348
1855.998830,0.004201
1856.481033,0.005663
1856.963235,0.007016
1857.445438,0.006874
1857.927641,0.004708
1858.409844,0.002836
1858.892047,0.002820
1859.374250,0.003419
1859.856453,0.004468
1860.338655,0.006140
1860.820858,0.006742
1861.303061,0.004986
1861.785264,0.002866
1862.267467,0.002414
1862.749670,0.002790
1863.231873,0.003462
1863.714076,0.004853
1864.196278,0.005847
1864.678481,0.004713
1865.160684,0.002600
1865.642887,0.001801
1866.125090,0.001913
1866.607293,0.002091
1867.089496,0.002920
1867.571698,0.003712
1868.053901,0.002887
1868.536104,0.001406
1869.018307,0.000640
1869.500510,0.000357
1869.982713,0.000790
1870.464916,0.001668
1870.947119,0.002396
1871.429321,0.002466
1871.911524,0.001875
1872.393727,0.001570
1872.875930,0.001709
1873.358133,0.001960
1873.840336,0.002425
1874.322539,0.003075
1874.804741,0.003822
1875.286944,0.005108
1875.769147,0.006363
1876.251350,0.005292
1876.733553,0.002740
1877.215756,0.001485
1877.697959,0.001206
1878.180162,0.001198
1878.662364,0.001323
1879.144567,0.001298
1879.626770,0.001465
1880.108973,0.001697
1880.591176,0.002127
1881.073379,0.002704
1881.555582,0.002427
1882.037784,0.001711
1882.519987,0.001763
1883.002190,0.002145
1883.484393,0.002507
1883.966596,0.003734
1884.448799,0.004756
1884.931002,0.003667
1885.413204,0.002106
1885.895407,0.002125
1886.377610,0.002656
1886.859813,0.003459
1887.342016,0.005561
1887.824219,0.006381
1888.306422,0.004015
1888.788625,0.002076
1889.270827,0.002208
1889.753030,0.002661
1890.235233,0.004504
1890.717436,0.007490
1891.199639,0.007318
1891.681842,0.004161
1892.164045,0.002875
1892.646247,0.003456
1893.128450,0.004182
1893.610653,0.006619
1894.092856,0.008774
1894.575059,0.006617
1895.057262,0.003304
1895.539465,0.003026
1896.021668,0.003879
1896.503870,0.005512
1896.986073,0.008767
1897.468276,0.009112
1897.950479,0.005492
1898.432682,0.003351
1898.914885,0.003676
1899.397088,0.004724
1899.879290,0.007526
1900.361493,0.009673
1900.843696,0.007342
1901.325899,0.004046
1901.808102,0.003648
1902.290305,0.004571
1902.772508,0.006578
1903.254711,0.009198
1903.736913,0.008477
1904.219116,0.005147
1904.701319,0.003665
1905.183522,0.004107
1905.665725,0.005727
1906.147928,0.008431
1906.630131,0.008876
1907.112333,0.006093
1907.594536,0.003856
1908.076739,0.003530
1908.558942,0.004671
1909.041145,0.007206
1909.523348,0.008237
1910.005551,0.006132
1910.487754,0.003988
1910.969956,0.003450
1911.452159,0.004210
1911.934362,0.006395
1912.416565,0.007629
1912.898768,0.006149
1913.380971,0.004201
1913.863174,0.003324
1914.345376,0.003804
1914.827579,0.005747
1915.309782,0.006821
1915.791985,0.005667
1916.274188,0.003932
1916.756391,0.002777
1917.238594,0.002941
1917.720796,0.004201
1918.202999,0.004691
1918.685202,0.004180
1919.167405,0.003601
1919.649608,0.002947
1920.131811,0.003237
1920.614014,0.004681
1921.096217,0.005084
1921.578419,0.004096
1922.060622,0.003055
1922.542825,0.002169
1923.025028,0.002450
1923.507231,0.003872
1923.989434,0.004158
1924.471637,0.003426
1924.953839,0.002736
1925.436042,0.002169
1925.918245,0.002686
1926.400448,0.003594
1926.882651,0.003289
1927.364854,0.002686
1927.847057,0.002287
1928.329260,0.002022
1928.811462,0.002709
1929.293665,0.003200
1929.775868,0.002559
1930.258071,0.002015
1930.740274,0.001679
1931.222477,0.001731
1931.704680,0.002449
1932.186882,0.002480
1932.669085,0.001938
1933.151288,0.001686
1933.633491,0.001489
1934.115694,0.001717
1934.597897,0.002066
1935.080100,0.001827
1935.562303,0.001530
1936.044505,0.001317
1936.526708,0.001268
1937.008911,0.001568
1937.491114,0.001513
1937.973317,0.001148
1938.455520,0.000967
1938.937723,0.000884
1939.419925,0.001082
1939.902128,0.001197
1940.384331,0.000936
1940.866534,0.000770
1941.348737,0.000585
1941.830940,0.000404
1942.313143,0.000259
1942.795346,0.000015
1943.277548,0.000197
1943.759751,0.000507
1944.241954,0.000586
1944.724157,0.000740
1945.206360,0.000635
1945.688563,0.000379
1946.170766,0.000380
1946.652968,0.000441
1947.135171,0.000593
1947.617374,0.000642
1948.099577,0.000415
1948.581780,0.000314
1949.063983,0.000391
1949.546186,0.000481
1950.028388,0.000452
1950.510591,0.000267
1950.992794,0.000258
1951.474997,0.000391
1951.957200,0.000391
1952.439403,0.000290
1952.921606,0.000202
1953.403809,0.000223
1953.886011,0.000243
1954.368214,0.000166
1954.850417,0.000123
1955.332620,0.000197
1955.814823,0.000277
1956.297026,0.000221
1956.779229,0.000123
1957.261431,0.000106
1957.743634,0.000136
1958.225837,0.000199
1958.708040,0.000269
1959.190243,0.000298
1959.672446,0.000261
1960.154649,0.000189
1960.636852,0.000179
1961.119054,0.000181
1961.601257,0.000110
1962.083460,0.000098
1962.565663,0.000150
1963.047866,0.000169
1963.530069,0.000188
1964.012272,0.000127
1964.494474,0.000015
1964.976677,0.000057
1965.458880,0.000117
1965.941083,0.000017
1966.423286,-0.000065
1966.905489,-0.000076
1967.387692,-0.000129
1967.869895,-0.000108
1968.352097,0.000051
1968.834300,0.000162
1969.316503,0.000124
1969.798706,0.000085
1970.280909,0.000158
1970.763112,0.000205
1971.245315,0.000192
1971.727517,0.000216
1972.209720,0.000234
1972.691923,0.000216
1973.174126,0.000234
1973.656329,0.000290
1974.138532,0.000281
1974.620735,0.000167
1975.102938,0.000047
1975.585140,0.000014
1976.067343,0.000109
1976.549546,0.000194
1977.031749,0.000144
1977.513952,0.000131
1977.996155,0.000135
1978.478358,0.000041
1978.960560,0.000002
1979.442763,0.000022
1979.924966,0.000113
1980.407169,0.000237
1980.889372,0.000165
1981.371575,0.000107
1981.853778,0.000211
1982.335980,0.000209
1982.818183,0.000093
1983.300386,0.000008
1983.782589,0.000043
1984.264792,0.000146
1984.746995,0.000171
1985.229198,0.000161
1985.711401,0.000167
1986.193603,0.000140
1986.675806,0.000040
1987.158009,-0.000014
1987.640212,0.000053
1988.122415,0.000029
1988.604618,-0.000034
1989.086821,0.000034
1989.569023,0.000072
1990.051226,-0.000002
1990.533429,-0.000051
1991.015632,-0.000044
1991.497835,-0.000212
1991.980038,-0.000460
1992.462241,-0.000367
1992.944444,-0.000083
1993.426646,0.000053
1993.908849,0.000050
1994.391052,0.000080
1994.873255,0.000169
1995.355458,0.000194
1995.837661,0.000199
1996.319864,0.000137
1996.802066,0.000006
1997.284269,0.000023
1997.766472,0.000151
1998.248675,0.000247
1998.730878,0.000210
1999.213081,0.000135
1999.695284,0.000209
2000.177487,0.000254
2000.659689,0.000197
2001.141892,0.000169
2001.624095,0.000117
2002.106298,0.000084
2002.588501,0.000151
2003.070704,0.000179
2003.552907,0.000143
2004.035109,0.000150
2004.517312,0.000124
2004.999515,0.000121
2005.481718,0.000254
2005.963921,0.000273
2006.446124,0.000152
2006.928327,0.000147
2007.410529,0.000167
2007.892732,0.000134
2008.374935,0.000126
2008.857138,0.000064
2009.339341,0.000021
2009.821544,0.000068
2010.303747,0.000060
2010.785950,0.000051
2011.268152,0.000110
2011.750355,0.000101
2012.232558,0.000035
2012.714761,0.000040
2013.196964,0.000081
2013.679167,0.000056
2014.161370,0.000039
2014.643572,0.000075
2015.125775,0.000069
2015.607978,0.000072
2016.090181,0.000048
2016.572384,-0.000076
2017.054587,-0.000113
2017.536790,-0.000006
2018.018993,0.000092
2018.501195,0.000132
2018.983398,0.000128
2019.465601,0.000109
2019.947804,0.000109
2020.430007,0.000091
2020.912210,0.000045
2021.394413,0.000054
2021.876615,0.000079
2022.358818,0.000044
2022.841021,0.000004
2023.323224,0.000002
2023.805427,0.000032
2024.287630,0.000053
2024.769833,0.000094
2025.252036,0.000185
2025.734238,0.000200
2026.216441,0.000124
2026.698644,0.000028
2027.180847,-0.000037
2027.663050,0.000059
2028.145253,0.000168
2028.627456,0.000073
2029.109658,0.000021
2029.591861,0.000121
2030.074064,0.000151
2030.556267,0.000159
2031.038470,0.000187
2031.520673,0.000126
2032.002876,0.000067
2032.485079,0.000044
2032.967281,0.000028
2033.449484,0.000064
2033.931687,0.000109
2034.413890,0.000110
2034.896093,0.000023
2035.378296,-0.000057
2035.860499,0.000019
2036.342701,0.000079
2036.824904,0.000045
2037.307107,0.000104
2037.789310,0.000178
2038.271513,0.000122
2038.753716,0.000072
2039.235919,0.000081
2039.718121,0.000072
2040.200324,0.000083
2040.682527,0.000077
2041.164730,0.000024
2041.646933,0.000078
2042.129136,0.000187
2042.611339,0.000168
2043.093542,0.000137
2043.575744,0.000166
2044.057947,0.000118
2044.540150,-0.000001
2045.022353,-0.000043
2045.504556,-0.000009
2045.986759,-0.000014
2046.468962,0.000009
2046.951164,0.000067
2047.433367,0.000046
2047.915570,0.000044
2048.397773,0.000006
2048.879976,-0.000076
2049.362179,-0.000006
2049.844382,0.000019
2050.326585,-0.000067
2050.808787,-0.000042
2051.290990,0.000067
2051.773193,0.000141
2052.255396,0.000088
2052.737599,-0.000021
2053.219802,-0.000002
2053.702005,0.000089
2054.184207,0.000089
2054.666410,0.000038
2055.148613,0.000046
2055.630816,0.000035
2056.113019,-0.000003
2056.595222,0.000037
2057.077425,0.000103
2057.559628,0.000088
2058.041830,0.000002
2058.524033,-0.000040
2059.006236,-0.000015
2059.488439,0.000012
2059.970642,0.000002
2060.452845,-0.000088
2060.935048,-0.000093
2061.417250,0.000113
2061.899453,0.000208
2062.381656,0.000079
2062.863859,-0.000007
2063.346062,-0.000042
2063.828265,-0.000074
2064.310468,-0.000097
2064.792671,-0.000156
2065.274873,-0.000090
2065.757076,0.000005
2066.239279,-0.000085
2066.721482,-0.000082
2067.203685,0.000038
2067.685888,0.000019
2068.168091,-0.000006
2068.650293,0.000051
2069.132496,0.000062
2069.614699,0.000015
2070.096902,-0.000014
2070.579105,0.000043
2071.061308,0.000113
2071.543511,0.000068
2072.025713,-0.000042
2072.507916,-0.000113
2072.990119,-0.000079
2073.472322,0.000021
2073.954525,0.000074
2074.436728,-0.000003
2074.918931,-0.000104
2075.401134,-0.000058
2075.883336,-0.000054
2076.365539,-0.000103
2076.847742,-0.000002
2077.329945,0.000066
2077.812148,0.000053
2078.294351,-0.000015
2078.776554,-0.000116
2079.258756,-0.000025
2079.740959,0.000058
2080.223162,-0.000040
2080.705365,-0.000045
2081.187568,0.000025
2081.669771,-0.000028
2082.151974,-0.000085
2082.634177,-0.000060
2083.116379,-0.000088
2083.598582,-0.000121
2084.080785,-0.000066
2084.562988,-0.000011
2085.045191,-0.000016
2085.527394,-0.000057
2086.009597,-0.000060
2086.491799,-0.000055
2086.974002,-0.000097
2087.456205,-0.000081
2087.938408,-0.000017
2088.420611,-0.000051
2088.902814,-0.000116
2089.385017,-0.000061
2089.867220,0.000040
2090.349422,0.000092
2090.831625,0.000104
2091.313828,0.000065
2091.796031,-0.000021
2092.278234,-0.000142
2092.760437,-0.000201
2093.242640,-0.000148
2093.724842,-0.000072
2094.207045,0.000000
2094.689248,0.000007
2095.171451,-0.000046
2095.653654,-0.000049
2096.135857,-0.000024
2096.618060,-0.000020
2097.100262,-0.000061
2097.582465,-0.000120
2098.064668,-0.000132
2098.546871,-0.000023
2099.029074,0.000151
2099.511277,0.000135
2099.993480,-0.000007
2100.475683,-0.000042
2100.957885,0.000006
2101.440088,0.000053
2101.922291,-0.000041
2102.404494,-0.000145
2102.886697,-0.000006
2103.368900,0.000172
2103.851103,0.000145
2104.333305,-0.000018
2104.815508,-0.000110
2105.297711,-0.000122
2105.779914,-0.000141
2106.262117,-0.000088
2106.744320,-0.000035
2107.226523,-0.000006
2107.708726,0.000055
2108.190928,-0.000003
2108.673131,-0.000126
2109.155334,-0.000189
2109.637537,-0.000200
2110.119740,-0.000107
2110.601943,0.000042
2111.084146,0.000153
2111.566348,0.000178
2112.048551,0.000079
2112.530754,-0.000062
2113.012957,-0.000104
2113.495160,-0.000096
2113.977363,-0.000124
2114.459566,-0.000071
2114.941769,0.000026
2115.423971,0.000116
2115.906174,0.000203
2116.388377,0.000065
2116.870580,-0.000083
2117.352783,0.000012
2117.834986,0.000028
2118.317189,-0.000040
2118.799391,-0.000033
2119.281594,-0.000023
2119.763797,-0.000010
2120.246000,-0.000046
2120.728203,-0.000085
2121.210406,-0.000056
2121.692609,-0.000101
2122.174812,-0.000208
2122.657014,-0.000206
2123.139217,-0.000050
2123.621420,0.000049
2124.103623,-0.000027
2124.585826,-0.000116
2125.068029,-0.000184
2125.550232,-0.000151
2126.032434,-0.000013
2126.514637,-0.000007
2126.996840,-0.000037
2127.479043,0.000045
2127.961246,0.000078
2128.443449,-0.000009
2128.925652,-0.000048
2129.407854,0.000005
2129.890057,0.000006
2130.372260,-0.000065
2130.854463,-0.000168
2131.336666,-0.000182
2131.818869,-0.000074
2132.301072,-0.000053
2132.783275,-0.000075
2133.265477,-0.000078
2133.747680,-0.000132
2134.229883,-0.000169
2134.712086,-0.000173
2135.194289,-0.000179
2135.676492,-0.000217
2136.158695,-0.000276
2136.640897,-0.000302
2137.123100,-0.000307
2137.605303,-0.000298
2138.087506,-0.000273
2138.569709,-0.000251
2139.051912,-0.000221
2139.534115,-0.000129
2140.016318,-0.000090
2140.498520,-0.000167
2140.980723,-0.000220
2141.462926,-0.000295
2141.945129,-0.000327
2142.427332,-0.000210
2142.909535,-0.000207
2143.391738,-0.000276
2143.873940,-0.000162
2144.356143,-0.000011
2144.838346,-0.000018
2145.320549,-0.000111
2145.802752,-0.000185
2146.284955,-0.000186
2146.767158,-0.000116
2147.249361,-0.000154
2147.731563,-0.000265
2148.213766,-0.000257
2148.695969,-0.000225
2149.178172,-0.000247
2149.660375,-0.000226
2150.142578,-0.000155
2150.624781,-0.000127
2151.106983,-0.000185
2151.589186,-0.000240
2152.071389,-0.000215
2152.553592,-0.000170
2153.035795,-0.000142
2153.517998,-0.000126
2154.000201,-0.000140
2154.482404,-0.000081
2154.964606,-0.000032
2155.446809,-0.000161
2155.929012,-0.000275
2156.411215,-0.000286
2156.893418,-0.000275
2157.375621,-0.000202
2157.857824,-0.000019
2158.340026,0.000101
2158.822229,-0.000050
2159.304432,-0.000206
2159.786635,-0.000258
2160.268838,-0.000298
2160.751041,-0.000198
2161.233244,-0.000130
2161.715446,-0.000085
2162.197649,0.000032
2162.679852,-0.000010
2163.162055,-0.000114
2163.644258,-0.000119
2164.126461,-0.000140
2164.608664,-0.000194
2165.090867,-0.000096
2165.573069,0.000093
2166.055272,0.000042
2166.537475,-0.000164
2167.019678,-0.000277
2167.501881,-0.000269
2167.984084,-0.000152
2168.466287,-0.000054
2168.948489,-0.000020
2169.430692,-0.000037
2169.912895,-0.000124
2170.395098,-0.000167
2170.877301,-0.000130
2171.359504,-0.000084
2171.841707,-0.000072
2172.323910,-0.000029
2172.806112,0.000068
2173.288315,0.000006
2173.770518,-0.000134
2174.252721,-0.000158
2174.734924,-0.000158
2175.217127,-0.000104
2175.699330,-0.000009
2176.181532,0.000065
2176.663735,0.000118
2177.145938,0.000088
2177.628141,0.000089
2178.110344,0.000117
2178.592547,-0.000018
2179.074750,-0.000138
2179.556953,-0.000004
2180.039155,0.000084
2180.521358,-0.000027
2181.003561,-0.000068
2181.485764,-0.000105
2181.967967,-0.000213
2182.450170,-0.000204
2182.932373,-0.000073
2183.414575,0.000012
2183.896778,-0.000070
2184.378981,-0.000180
2184.861184,-0.000192
2185.343387,-0.000153
2185.825590,-0.000102
2186.307793,-0.000057
2186.789995,-0.000002
2187.272198,-0.000016
2187.754401,-0.000097
2188.236604,-0.000083
2188.718807,0.000027
2189.201010,0.000118
2189.683213,0.000159
2190.165416,0.000156
2190.647618,0.000143
2191.129821,0.000166
2191.612024,0.000142
2192.094227,0.000078
2192.576430,0.000110
2193.058633,0.000222
2193.540836,0.000258
2194.023038,0.000134
2194.505241,0.000035
2194.987444,0.000064
2195.469647,0.000067
2195.951850,0.000088
2196.434053,0.000183
2196.916256,0.000204
2197.398459,0.000157
2197.880661,0.000128
2198.362864,0.000116
2198.845067,0.000156
2199.327270,0.000215
2199.809473,0.000241
2200.291676,0.000291
2200.773879,0.000293
2201.256081,0.000206
2201.738284,0.000168
2202.220487,0.000183
2202.702690,0.000235
2203.184893,0.000364
2203.667096,0.000413
2204.149299,0.000351
2204.631502,0.000362
2205.113704,0.000348
2205.595907,0.000261
2206.078110,0.000292
2206.560313,0.000329
2207.042516,0.000240
2207.524719,0.000178
2208.006922,0.000239
2208.489124,0.000332
2208.971327,0.000326
2209.453530,0.000248
2209.935733,0.000211
2210.417936,0.000243
2210.900139,0.000291
2211.382342,0.000306
2211.864545,0.000367
2212.346747,0.000433
2212.828950,0.000441
2213.311153,0.000397
2213.793356,0.000217
2214.275559,0.000131
2214.757762,0.000257
2215.239965,0.000281
2215.722167,0.000233
2216.204370,0.000209
2216.686573,0.000166
2217.168776,0.000151
2217.650979,0.000172
2218.133182,0.000192
2218.615385,0.000070
2219.097587,-0.000076
2219.579790,-0.000043
2220.061993,-0.000002
2220.544196,-0.000005
2221.026399,-0.000003
2221.508602,-0.000036
2221.990805,-0.000101
2222.473008,-0.000189
2222.955210,-0.000219
2223.437413,-0.000175
2223.919616,-0.000166
2224.401819,-0.000175
2224.884022,-0.000069
2225.366225,0.000020
2225.848428,0.000000
2226.330630,0.000039
2226.812833,0.000104
2227.295036,0.000143
2227.777239,0.000242
2228.259442,0.000300
2228.741645,0.000311
2229.223848,0.000403
2229.706051,0.000522
2230.188253,0.000607
2230.670456,0.000673
2231.152659,0.000742
2231.634862,0.000734
2232.117065,0.000585
2232.599268,0.000502
2233.081471,0.000585
2233.563673,0.000698
2234.045876,0.000784
2234.528079,0.000832
2235.010282,0.000851
2235.492485,0.000869
2235.974688,0.000863
2236.456891,0.000861
2236.939094,0.000902
2237.421296,0.000944
2237.903499,0.000976
2238.385702,0.000911
2238.867905,0.000763
2239.350108,0.000774
2239.832311,0.000851
2240.314514,0.000881
2240.796716,0.000987
2241.278919,0.001001
2241.761122,0.000904
2242.243325,0.000867
2242.725528,0.000818
2243.207731,0.000764
2243.689934,0.000795
2244.172137,0.000891
2244.654339,0.000945
2245.136542,0.000847
2245.618745,0.000710
2246.100948,0.000718
2246.583151,0.000798
2247.065354,0.000830
2247.547557,0.000802
2248.029759,0.000693
2248.511962,0.000626
2248.994165,0.000656
2249.476368,0.000606
2249.958571,0.000540
2250.440774,0.000553
2250.922977,0.000595
2251.405179,0.000711
2251.887382,0.000804
2252.369585,0.000813
2252.851788,0.000803
2253.333991,0.000740
2253.816194,0.000642
2254.298397,0.000603
2254.780600,0.000642
2255.262802,0.000640
2255.745005,0.000605
2256.227208,0.000650
2256.709411,0.000641
2257.191614,0.000584
2257.673817,0.000604
2258.156020,0.000614
2258.638222,0.000615
2259.120425,0.000603
2259.602628,0.000506
2260.084831,0.000439
2260.567034,0.000464
2261.049237,0.000555
2261.531440,0.000692
2262.013643,0.000736
2262.495845,0.000747
2262.978048,0.000797
2263.460251,0.000738
2263.942454,0.000696
2264.424657,0.000738
2264.906860,0.000700
2265.389063,0.000661
2265.871265,0.000717
2266.353468,0.000775
2266.835671,0.000770
2267.317874,0.000779
2267.800077,0.000868
2268.282280,0.000911
2268.764483,0.000785
2269.246686,0.000716
2269.728888,0.000847
2270.211091,0.000870
2270.693294,0.000806
2271.175497,0.000930
2271.657700,0.000971
2272.139903,0.000843
2272.622106,0.000845
2273.104308,0.000889
2273.586511,0.000841
2274.068714,0.000848
2274.550917,0.000973
2275.033120,0.001065
2275.515323,0.001057
2275.997526,0.001085
2276.479729,0.001113
2276.961931,0.001050
2277.444134,0.001034
2277.926337,0.001112
2278.408540,0.001184
2278.890743,0.001262
2279.372946,0.001363
2279.855149,0.001318
2280.337351,0.001175
2280.819554,0.001233
2281.301757,0.001353
2281.783960,0.001337
2282.266163,0.001309
2282.748366,0.001292
2283.230569,0.001321
2283.712771,0.001367
2284.194974,0.001359
2284.677177,0.001374
2285.159380,0.001343
2285.641583,0.001266
2286.123786,0.001292
2286.605989,0.001292
2287.088192,0.001192
2287.570394,0.001218
2288.052597,0.001414
2288.534800,0.001495
2289.017003,0.001425
2289.499206,0.001420
2289.981409,0.001359
2290.463612,0.001219
2290.945814,0.001182
2291.428017,0.001046
2291.910220,0.000923
2292.392423,0.001110
2292.874626,0.001246
2293.356829,0.001170
2293.839032,0.001099
2294.321235,0.000973
2294.803437,0.000955
2295.285640,0.001091
2295.767843,0.001021
2296.250046,0.000938
2296.732249,0.000998
2297.214452,0.000996
2297.696655,0.001005
2298.178857,0.000860
2298.661060,0.000726
2299.143263,0.000975
2299.625466,0.001113
2300.107669,0.000867
2300.589872,0.000564
2301.072075,0.000536
2301.554278,0.000824
2302.036480,0.000845
2302.518683,0.000444
2303.000886,0.000204
2303.483089,0.000320
2303.965292,0.000468
2304.447495,0.000267
2304.929698,-0.000099
2305.411900,-0.000079
2305.894103,0.000364
2306.376306,0.000393
2306.858509,-0.000094
2307.340712,-0.000201
2307.822915,0.000445
2308.305118,0.000746
2308.787320,0.000240
2309.269523,-0.000052
2309.751726,0.000562
2310.233929,0.001236
2310.716132,0.000896
2311.198335,0.000125
2311.680538,0.000382
2312.162741,0.001225
2312.644943,0.001048
2313.127146,0.000033
2313.609349,-0.000009
2314.091552,0.001220
2314.573755,0.001629
2315.055958,0.000309
2315.538161,-0.000411
2316.020363,0.000874
2316.502566,0.001658
2316.984769,0.000486
2317.466972,-0.000655
2317.949175,0.000262
2318.431378,0.001397
2318.913581,0.000334
2319.395784,-0.001336
2319.877986,-0.000218
2320.360189,0.001643
2320.842392,0.000509
2321.324595,-0.001660
2321.806798,-0.000469
2322.289001,0.001566
2322.771204,0.000415
2323.253406,-0.001872
2323.735609,-0.000529
2324.217812,0.001800
2324.700015,0.000531
2325.182218,-0.001651
2325.664421,0.000101
2326.146624,0.002183
2326.628827,0.000677
2327.111029,-0.001372
2327.593232,0.000398
2328.075435,0.002170
2328.557638,0.000253
2329.039841,-0.001519
2329.522044,0.000886
2330.004247,0.002291
2330.486449,-0.000082
2330.968652,-0.000955
2331.450855,0.001885
2331.933058,0.002350
2332.415261,-0.000245
2332.897464,0.000110
2333.379667,0.002917
2333.861870,0.002040
2334.344072,-0.000746
2334.826275,0.000957
2335.308478,0.003263
2335.790681,0.001195
2336.272884,-0.000769
2336.755087,0.001783
2337.237290,0.002725
2337.719492,0.000184
2338.201695,0.000485
2338.683898,0.003117
2339.166101,0.001905
2339.648304,-0.000399
2340.130507,0.001883
2340.612710,0.003221
2341.094912,0.000718
2341.577115,0.000742
2342.059318,0.003433
2342.541521,0.002601
2343.023724,0.000930
2343.505927,0.003313
2343.988130,0.004602
2344.470333,0.002845
2344.952535,0.003636
2345.434738,0.005928
2345.916941,0.005256
2346.399144,0.005094
2346.881347,0.007627
2347.363550,0.008532
2347.845753,0.008185
2348.327955,0.009401
2348.810158,0.010532
2349.292361,0.010239
2349.774564,0.009255
2350.256767,0.008553
2350.738970,0.008383
2351.221173,0.007083
2351.703376,0.005298
2352.185578,0.005604
2352.667781,0.005172
2353.149984,0.003008
2353.632187,0.003518
2354.114390,0.003795
2354.596593,0.001392
2355.078796,0.001992
2355.560998,0.003026
2356.043201,0.000942
2356.525404,0.001445
2357.007607,0.002315
2357.489810,0.000177
2357.972013,0.000986
2358.454216,0.001960
2358.936419,0.000006
2359.418621,0.001218
2359.900824,0.002026
2360.383027,0.000288
2360.865230,0.001584
2361.347433,0.001702
2361.829636,0.000494
2362.311839,0.001825
2362.794041,0.001094
2363.276244,0.000188
2363.758447,0.001175
2364.240650,-0.000194
2364.722853,-0.000060
2365.205056,0.000422
2365.687259,-0.000701
2366.169462,0.000196
2366.651664,-0.000284
2367.133867,-0.000742
2367.616070,-0.000083
2368.098273,-0.001006
2368.580476,-0.000631
2369.062679,-0.000545
2369.544882,-0.000795
2370.027084,-0.000175
2370.509287,-0.000524
2370.991490,-0.000278
2371.473693,-0.000180
2371.955896,-0.000229
2372.438099,0.000277
2372.920302,0.000150
2373.402504,0.000329
2373.884707,0.000526
2374.366910,0.000592
2374.849113,0.000895
2375.331316,0.000991
2375.813519,0.001123
2376.295722,0.001215
2376.777925,0.001255
2377.260127,0.001264
2377.742330,0.001384
2378.224533,0.001584
2378.706736,0.001600
2379.188939,0.001592
2379.671142,0.001522
2380.153345,0.001470
2380.635547,0.001439
2381.117750,0.001370
2381.599953,0.001300
2382.082156,0.001127
2382.564359,0.000929
2383.046562,0.000707
2383.528765,0.000440
2384.010968,0.000137
2384.493170,-0.000175
2384.975373,-0.000454
2385.457576,-0.000388
2385.939779,-0.000315
2386.421982,-0.000239
2386.904185,-0.000212
2387.386388,-0.000174
2387.868590,-0.000117
2388.350793,-0.000060
2388.832996,0.000018
2389.315199,0.000068
2389.797402,0.000051
2390.279605,0.000031
2390.761808,-0.000021
2391.244011,-0.000089
2391.726213,-0.000041
2392.208416,0.000056
2392.690619,0.000051
2393.172822,0.000034
2393.655025,0.000085
2394.137228,0.000024
2394.619431,-0.000115
2395.101633,-0.000087
2395.583836,0.000021
2396.066039,0.000024
2396.548242,-0.000025
2397.030445,-0.000058
2397.512648,-0.000059
2397.994851,-0.000013
2398.477053,0.000014
2398.959256,-0.000019
2399.441459,-0.000019
2399.923662,0.000045
2400.405865,0.000040
2400.888068,-0.000028
2401.370271,-0.000030
2401.852474,-0.000077
2402.334676,-0.000168
2402.816879,-0.000094
2403.299082,0.000004
2403.781285,-0.000033
2404.263488,-0.000028
2404.745691,0.000021
2405.227894,-0.000006
2405.710096,-0.000035
2406.192299,-0.000059
2406.674502,-0.000134
2407.156705,-0.000158
2407.638908,-0.000062
2408.121111,0.000004
2408.603314,-0.000004
2409.085517,0.000009
2409.567719,-0.000035
2410.049922,-0.000131
2410.532125,-0.000124
2411.014328,-0.000036
2411.496531,-0.000016
2411.978734,-0.000039
2412.460937,0.000021
2412.943139,0.000032
2413.425342,-0.000088
2413.907545,-0.000148
2414.389748,-0.000117
2414.871951,-0.000117
2415.354154,-0.000093
2415.836357,-0.000012
2416.318560,-0.000037
2416.800762,-0.000131
2417.282965,-0.000125
2417.765168,-0.000075
2418.247371,-0.000025
2418.729574,0.000042
2419.211777,0.000043
2419.693980,0.000043
2420.176182,0.000125
2420.658385,0.000052
2421.140588,-0.000115
2421.622791,-0.000037
2422.104994,0.000052
2422.587197,-0.000013
2423.069400,-0.000013
2423.551603,-0.000060
2424.033805,-0.000112
2424.516008,-0.000008
2424.998211,0.000022
2425.480414,-0.000017
2425.962617,-0.000011
2426.444820,-0.000021
2426.927023,-0.000005
2427.409225,-0.000027
2427.891428,-0.000056
2428.373631,-0.000031
2428.855834,-0.000035
2429.338037,0.000011
2429.820240,0.000041
2430.302443,-0.000040
2430.784645,-0.000047
2431.266848,-0.000006
2431.749051,0.000004
2432.231254,0.000078
2432.713457,0.000118
2433.195660,0.000051
2433.677863,0.000005
2434.160066,0.000030
2434.642268,0.000063
2435.124471,0.000017
2435.606674,-0.000031
2436.088877,0.000030
2436.571080,0.000058
2437.053283,0.000021
2437.535486,0.000005
2438.017688,-0.000056
2438.499891,-0.000136
2438.982094,-0.000105
2439.464297,0.000017
2439.946500,0.000056
2440.428703,0.000016
2440.910906,0.000041
2441.393109,0.000049
2441.875311,0.000022
2442.357514,0.000052
2442.839717,0.000021
2443.321920,-0.000080
2443.804123,-0.000107
2444.286326,-0.000065
2444.768529,-0.000018
2445.250731,0.000075
2445.732934,0.000198
2446.215137,0.000168
2446.697340,0.000070
2447.179543,0.000119
2447.661746,0.000189
2448.143949,0.000111
2448.626152,0.000027
2449.108354,0.000062
2449.590557,0.000016
2450.072760,-0.000081
2450.554963,-0.000036
2451.037166,-0.000003
2451.519369,-0.000084
2452.001572,-0.000087
2452.483774,0.000042
2452.965977,0.000072
2453.448180,0.000038
2453.930383,0.000014
2454.412586,-0.000077
2454.894789,-0.000055
2455.376992,0.000016
2455.859195,-0.000007
2456.341397,-0.000045
2456.823600,-0.000050
2457.305803,0.000052
2457.788006,0.000103
2458.270209,0.000071
2458.752412,0.000018
2459.234615,-0.000111
2459.716817,-0.000081
2460.199020,0.000049
2460.681223,0.000066
2461.163426,0.000034
2461.645629,-0.000063
2462.127832,-0.000077
2462.610035,-0.000019
2463.092237,-0.000002
2463.574440,0.000081
2464.056643,0.000063
2464.538846,-0.000014
2465.021049,0.000088
2465.503252,0.000183
2465.985455,0.000137
2466.467658,0.000032
2466.949860,-0.000026
2467.432063,-0.000013
2467.914266,-0.000000
2468.396469,-0.000009
2468.878672,-0.000015
2469.360875,0.000058
2469.843078,0.000157
2470.325280,0.000151
2470.807483,0.000098
2471.289686,0.000065
2471.771889,0.000033
2472.254092,0.000035
2472.736295,0.000052
2473.218498,0.000032
2473.700701,0.000071
2474.182903,0.000167
2474.665106,0.000169
2475.147309,0.000129
2475.629512,0.000132
2476.111715,0.000088
2476.593918,-0.000010
2477.076121,-0.000040
2477.558323,0.000080
2478.040526,0.000204
2478.522729,0.000126
2479.004932,0.000043
2479.487135,0.000122
2479.969338,0.000151
2480.451541,0.000165
2480.933744,0.000188
2481.415946,0.000053
2481.898149,-0.000036
2482.380352,0.000055
2482.862555,0.000089
2483.344758,-0.000006
2483.826961,-0.000023
2484.309164,0.000106
2484.791366,0.000197
2485.273569,0.000115
2485.755772,0.000002
2486.237975,0.000035
2486.720178,0.000094
2487.202381,0.000088
2487.684584,0.000069
2488.166786,0.000036
2488.648989,0.000003
2489.131192,-0.000025
2489.613395,-0.000033
2490.095598,0.000023
2490.577801,0.000115
2491.060004,0.000140
2491.542207,0.000075
2492.024409,-0.000025
2492.506612,-0.000064
2492.988815,0.000061
2493.471018,0.000136
2493.953221,0.000040
2494.435424,-0.000019
2494.917627,0.000051
2495.399829,0.000174
2495.882032,0.000165
2496.364235,0.000118
2496.846438,0.000142
2497.328641,0.000085
2497.810844,0.000023
2498.293047,-0.000019
2498.775250,-0.000059
2499.257452,-0.000071
2499.739655,-0.000034
2500.221858,0.000078
2500.704061,0.000101
2501.186264,0.000045
2501.668467,-0.000008
2502.150670,-0.000040
2502.632872,0.000047
2503.115075,0.000124
2503.597278,0.000108
2504.079481,0.000074
2504.561684,0.000063
2505.043887,0.000105
2505.526090,0.000165
2506.008293,0.000228
2506.490495,0.000231
2506.972698,0.000164
2507.454901,0.000170
2507.937104,0.000223
2508.419307,0.000239
2508.901510,0.000223
2509.383713,0.000139
2509.865915,0.000063
2510.348118,0.000052
2510.830321,0.000058
2511.312524,0.000098
2511.794727,0.000106
2512.276930,0.000124
2512.759133,0.000232
2513.241336,0.000174
2513.723538,-0.000056
2514.205741,-0.000131
2514.687944,-0.000050
2515.170147,0.000022
2515.652350,0.000033
2516.134553,0.000039
2516.616756,0.000083
2517.098958,0.000056
2517.581161,-0.000032
2518.063364,-0.000066
2518.545567,-0.000041
2519.027770,0.000017
2519.509973,-0.000001
2519.992176,-0.000093
2520.474378,-0.000079
2520.956581,0.000051
2521.438784,0.000133
2521.920987,0.000114
2522.403190,0.000030
2522.885393,-0.000085
2523.367596,-0.000110
2523.849799,-0.000084
2524.332001,-0.000056
2524.814204,0.000082
2525.296407,0.000149
2525.778610,0.000121
2526.260813,0.000171
2526.743016,0.000120
2527.225219,-0.000027
2527.707421,-0.000039
2528.189624,0.000010
2528.671827,-0.000043
2529.154030,-0.000077
2529.636233,0.000010
2530.118436,-0.000008
2530.600639,-0.000159
2531.082842,-0.000153
2531.565044,-0.000019
2532.047247,0.000018
2532.529450,0.000006
2533.011653,0.000036
2533.493856,0.000043
2533.976059,-0.000007
2534.458262,-0.000023
2534.940464,0.000037
2535.422667,0.000025
2535.904870,-0.000006
2536.387073,0.000068
2536.869276,0.000078
2537.351479,0.000062
2537.833682,0.000119
2538.315885,0.000074
2538.798087,-0.000002
2539.280290,0.000057
2539.762493,0.000045
2540.244696,-0.000063
2540.726899,-0.000047
2541.209102,0.000011
2541.691305,0.000100
2542.173507,0.000161
2542.655710,0.000031
2543.137913,-0.000080
2543.620116,-0.000018
2544.102319,0.000145
2544.584522,0.000205
2545.066725,0.000105
2545.548928,0.000107
2546.031130,0.000148
2546.513333,0.000092
2546.995536,0.000073
2547.477739,0.000082
2547.959942,0.000074
2548.442145,0.000058
2548.924348,0.000026
2549.406550,0.000013
2549.888753,0.000022
2550.370956,0.000058
2550.853159,0.000168
2551.335362,0.000185
2551.817565,0.000034
2552.299768,-0.000005
2552.781970,0.000025
2553.264173,-0.000037
2553.746376,0.000039
2554.228579,0.000163
2554.710782,0.000087
2555.192985,0.000024
2555.675188,0.000068
2556.157391,0.000093
2556.639593,0.000057
2557.121796,-0.000026
2557.603999,0.000045
2558.086202,0.000180
2558.568405,0.000074
2559.050608,-0.000054
2559.532811,-0.000064
2560.015013,-0.000133
2560.497216,-0.000110
2560.979419,0.000047
2561.461622,0.000052
2561.943825,-0.000044
2562.426028,-0.000086
2562.908231,-0.000110
2563.390434,-0.000013
2563.872636,0.000128
2564.354839,0.000083
2564.837042,-0.000009
2565.319245,0.000048
2565.801448,0.000139
2566.283651,0.000125
2566.765854,0.000099
2567.248056,0.000113
2567.730259,0.000071
2568.212462,0.000057
2568.694665,0.000106
2569.176868,0.000079
2569.659071,0.000062
2570.141274,0.000053
2570.623477,-0.000025
2571.105679,0.000015
2571.587882,0.000130
2572.070085,0.000171
2572.552288,0.000153
2573.034491,0.000087
2573.516694,0.000034
2573.998897,0.000024
2574.481099,0.000097
2574.963302,0.000148
2575.445505,0.000051
2575.927708,-0.000002
2576.409911,0.000026
2576.892114,0.000052
2577.374317,0.000081
2577.856520,0.000045
2578.338722,-0.000024
2578.820925,-0.000028
2579.303128,0.000040
2579.785331,0.000136
2580.267534,0.000202
2580.749737,0.000192
2581.231940,0.000133
2581.714142,0.000080
2582.196345,0.000019
2582.678548,-0.000048
2583.160751,-0.000038
2583.642954,0.000072
2584.125157,0.000165
2584.607360,0.000189
2585.089562,0.000169
2585.571765,0.000041
2586.053968,-0.000049
2586.536171,0.000011
2587.018374,-0.000027
2587.500577,-0.000092
2587.982780,0.000012
2588.464983,0.000066
2588.947185,0.000047
2589.429388,0.000056
2589.911591,0.000023
2590.393794,0.000014
2590.875997,0.000031
2591.358200,0.000038
2591.840403,0.000027
2592.322605,0.000030
2592.804808,0.000086
2593.287011,0.000047
2593.769214,0.000007
2594.251417,0.000014
2594.733620,-0.000024
2595.215823,0.000028
2595.698026,0.000073
2596.180228,0.000041
2596.662431,0.000010
2597.144634,-0.000028
2597.626837,-0.000027
2598.109040,0.000000
2598.591243,0.000092
2599.073446,0.000177
2599.555648,0.000149
2600.037851,0.000088
2600.520054,0.000054
2601.002257,0.000093
2601.484460,0.000140
2601.966663,0.000179
2602.448866,0.000202
2602.931069,0.000086
2603.413271,0.000051
2603.895474,0.000186
2604.377677,0.000183
2604.859880,0.000088
2605.342083,0.000108
2605.824286,0.000137
2606.306489,0.000131
2606.788691,0.000169
2607.270894,0.000164
2607.753097,0.000070
2608.235300,0.000005
2608.717503,0.000053
2609.199706,0.000158
2609.681909,0.000185
2610.164111,0.000144
2610.646314,0.000157
2611.128517,0.000155
2611.610720,0.000104
2612.092923,0.000078
2612.575126,-0.000017
2613.057329,-0.000094
2613.539532,-0.000041
2614.021734,-0.000026
2614.503937,-0.000019
2614.986140,0.000047
2615.468343,0.000110
2615.950546,0.000160
2616.432749,0.000150
2616.914952,0.000063
2617.397154,-0.000022
2617.879357,0.000055
2618.361560,0.000218
2618.843763,0.000240
2619.325966,0.000197
2619.808169,0.000154
2620.290372,0.000081
2620.772575,0.000017
2621.254777,-0.000009
2621.736980,0.000090
2622.219183,0.000198
2622.701386,0.000160
2623.183589,0.000147
2623.665792,0.000183
2624.147995,0.000149
2624.630197,0.000124
2625.112400,0.000107
2625.594603,0.000072
2626.076806,0.000045
2626.559009,-0.000015
2627.041212,-0.000009
2627.523415,0.000046
2628.005618,0.000049
2628.487820,0.000151
2628.970023,0.000217
2629.452226,0.000069
2629.934429,0.000034
2630.416632,0.000185
2630.898835,0.000204
2631.381038,0.000093
2631.863240,0.000048
2632.345443,0.000009
2632.827646,0.000017
2633.309849,0.000136
2633.792052,0.000148
2634.274255,0.000101
2634.756458,0.000204
2635.238661,0.000353
2635.720863,0.000310
2636.203066,0.000196
2636.685269,0.000295
2637.167472,0.000334
2637.649675,0.000187
2638.131878,0.000156
2638.614081,0.000214
2639.096283,0.000275
2639.578486,0.000320
2640.060689,0.000309
2640.542892,0.000303
2641.025095,0.000266
2641.507298,0.000165
2641.989501,0.000117
2642.471703,0.000109
2642.953906,0.000060
2643.436109,0.000113
2643.918312,0.000226
2644.400515,0.000192
2644.882718,0.000155
2645.364921,0.000197
2645.847124,0.000242
2646.329326,0.000350
2646.811529,0.000324
2647.293732,0.000064
2647.775935,0.000034
2648.258138,0.000231
2648.740341,0.000197
2649.222544,0.000048
2649.704746,0.000062
2650.186949,0.000206
2650.669152,0.000266
2651.151355,0.000190
2651.633558,0.000155
2652.115761,0.000100
2652.597964,-0.000012
2653.080167,0.000078
2653.562369,0.000300
2654.044572,0.000314
2654.526775,0.000173
2655.008978,0.000067
2655.491181,0.000024
2655.973384,0.000088
2656.455587,0.000123
2656.937789,0.000017
2657.419992,-0.000027
2657.902195,0.000130
2658.384398,0.000306
2658.866601,0.000300
2659.348804,0.000187
2659.831007,0.000129
2660.313210,0.000187
2660.795412,0.000228
2661.277615,0.000164
2661.759818,0.000161
2662.242021,0.000168
2662.724224,0.000100
2663.206427,0.000084
2663.688630,0.000139
2664.170832,0.000177
2664.653035,0.000129
2665.135238,0.000096
2665.617441,0.000057
2666.099644,-0.000054
2666.581847,0.000026
2667.064050,0.000229
2667.546253,0.000177
2668.028455,0.000010
2668.510658,0.000064
2668.992861,0.000199
2669.475064,0.000182
2669.957267,0.000145
2670.439470,0.000200
2670.921673,0.000237
2671.403875,0.000200
2671.886078,0.000181
2672.368281,0.000199
2672.850484,0.000180
2673.332687,0.000160
2673.814890,0.000100
2674.297093,0.000015
2674.779295,0.000168
2675.261498,0.000381
2675.743701,0.000305
2676.225904,0.000210
2676.708107,0.000243
2677.190310,0.000261
2677.672513,0.000289
2678.154716,0.000241
2678.636918,0.000177
2679.119121,0.000259
2679.601324,0.000369
2680.083527,0.000428
2680.565730,0.000327
2681.047933,0.000075
2681.530136,-0.000013
2682.012338,0.000118
2682.494541,0.000174
2682.976744,0.000099
2683.458947,0.000132
2683.941150,0.000213
2684.423353,0.000213
2684.905556,0.000212
2685.387759,0.000137
2685.869961,0.000069
2686.352164,0.000106
2686.834367,0.000078
2687.316570,0.000022
2687.798773,0.000068
2688.280976,0.000188
2688.763179,0.000274
2689.245381,0.000268
2689.727584,0.000256
2690.209787,0.000246
2690.691990,0.000161
2691.174193,0.000113
2691.656396,0.000137
2692.138599,0.000147
2692.620802,0.000249
2693.103004,0.000275
2693.585207,0.000112
2694.067410,0.000108
2694.549613,0.000154
2695.031816,0.000094
2695.514019,0.000156
2695.996222,0.000238
2696.478424,0.000205
2696.960627,0.000159
2697.442830,0.000123
2697.925033,0.000149
2698.407236,0.000314
2698.889439,0.000454
2699.371642,0.000380
2699.853844,0.000254
2700.336047,0.000287
2700.818250,0.000351
2701.300453,0.000271
2701.782656,0.000173
2702.264859,0.000148
2702.747062,0.000074
2703.229265,0.000037
2703.711467,0.000186
2704.193670,0.000348
2704.675873,0.000406
2705.158076,0.000398
2705.640279,0.000310
2706.122482,0.000154
2706.604685,-0.000004
2707.086887,-0.000048
2707.569090,0.000061
2708.051293,0.000191
2708.533496,0.000239
2709.015699,0.000208
2709.497902,0.000191
2709.980105,0.000217
2710.462308,0.000215
2710.944510,0.000232
2711.426713,0.000330
2711.908916,0.000388
2712.391119,0.000265
2712.873322,0.000136
2713.355525,0.000108
2713.837728,0.000053
2714.319930,0.000098
2714.802133,0.000165
2715.284336,0.000106
2715.766539,0.000140
2716.248742,0.000207
2716.730945,0.000212
2717.213148,0.000277
2717.695351,0.000308
2718.177553,0.000269
2718.659756,0.000258
2719.141959,0.000276
2719.624162,0.000334
2720.106365,0.000481
2720.588568,0.000503
2721.070771,0.000230
2721.552973,0.000020
2722.035176,0.000122
2722.517379,0.000336
2722.999582,0.000429
2723.481785,0.000290
2723.963988,0.000171
2724.446191,0.000279
2724.928394,0.000299
2725.410596,0.000155
2725.892799,0.000135
2726.375002,0.000208
2726.857205,0.000247
2727.339408,0.000279
2727.821611,0.000266
2728.303814,0.000254
2728.786016,0.000263
2729.268219,0.000215
2729.750422,0.000235
2730.232625,0.000323
2730.714828,0.000355
2731.197031,0.000386
2731.679234,0.000313
2732.161436,0.000205
2732.643639,0.000236
2733.125842,0.000207
2733.608045,0.000243
2734.090248,0.000433
2734.572451,0.000426
2735.054654,0.000325
2735.536857,0.000271
2736.019059,0.000184
2736.501262,0.000190
2736.983465,0.000233
2737.465668,0.000193
2737.947871,0.000208
2738.430074,0.000386
2738.912277,0.000501
2739.394479,0.000388
2739.876682,0.000322
2740.358885,0.000389
2740.841088,0.000420
2741.323291,0.000377
2741.805494,0.000269
2742.287697,0.000235
2742.769900,0.000288
2743.252102,0.000322
2743.734305,0.000404
2744.216508,0.000473
2744.698711,0.000456
2745.180914,0.000425
2745.663117,0.000325
2746.145320,0.000147
2746.627522,0.000035
2747.109725,0.000052
2747.591928,0.000115
2748.074131,0.000104
2748.556334,0.000085
2749.038537,0.000149
2749.520740,0.000184
2750.002943,0.000146
2750.485145,0.000117
2750.967348,0.000153
2751.449551,0.000241
2751.931754,0.000234
2752.413957,0.000159
2752.896160,0.000187
2753.378363,0.000229
2753.860565,0.000114
2754.342768,-0.000057
2754.824971,-0.000015
2755.307174,0.000141
2755.789377,0.000118
2756.271580,0.000081
2756.753783,0.000177
2757.235986,0.000235
2757.718188,0.000288
2758.200391,0.000372
2758.682594,0.000276
2759.164797,0.000111
2759.647000,0.000158
2760.129203,0.000221
2760.611406,0.000196
2761.093608,0.000273
2761.575811,0.000341
2762.058014,0.000318
2762.540217,0.000252
2763.022420,0.000178
2763.504623,0.000253
2763.986826,0.000369
2764.469028,0.000320
2764.951231,0.000252
2765.433434,0.000191
2765.915637,0.000090
2766.397840,0.000136
2766.880043,0.000261
2767.362246,0.000286
2767.844449,0.000270
2768.326651,0.000278
2768.808854,0.000331
2769.291057,0.000305
2769.773260,0.000180
2770.255463,0.000133
2770.737666,0.000095
2771.219869,0.000083
2771.702071,0.000187
2772.184274,0.000226
2772.666477,0.000175
2773.148680,0.000181
2773.630883,0.000245
2774.113086,0.000192
2774.595289,0.000069
2775.077492,0.000144
2775.559694,0.000228
2776.041897,0.000202
2776.524100,0.000211
2777.006303,0.000107
2777.488506,0.000001
2777.970709,-0.000009
2778.452912,-0.000058
2778.935114,-0.000022
2779.417317,0.000051
2779.899520,0.000088
2780.381723,0.000122
2780.863926,0.000035
2781.346129,-0.000103
2781.828332,-0.000051
2782.310535,0.000201
2782.792737,0.000291
2783.274940,0.000185
2783.757143,0.000177
2784.239346,0.000192
2784.721549,0.000150
2785.203752,0.000103
2785.685955,0.000071
2786.168157,0.000080
2786.650360,0.000115
2787.132563,0.000187
2787.614766,0.000195
2788.096969,0.000173
2788.579172,0.000193
2789.061375,0.000102
2789.543577,0.000056
2790.025780,0.000192
2790.507983,0.000297
2790.990186,0.000333
2791.472389,0.000345
2791.954592,0.000298
2792.436795,0.000207
2792.918998,0.000131
2793.401200,0.000112
2793.883403,0.000152
2794.365606,0.000226
2794.847809,0.000170
2795.330012,0.000036
2795.812215,0.000105
2796.294418,0.000221
2796.776620,0.000175
2797.258823,0.000118
2797.741026,0.000132
2798.223229,0.000163
2798.705432,0.000181
2799.187635,0.000191
2799.669838,0.000125
2800.152041,0.000003
2800.634243,0.000037
2801.116446,0.000116
2801.598649,0.000098
2802.080852,0.000137
2802.563055,0.000142
2803.045258,0.000074
2803.527461,0.000090
2804.009663,0.000116
2804.491866,0.000134
2804.974069,0.000202
2805.456272,0.000259
2805.938475,0.000254
2806.420678,0.000120
2806.902881,-0.000042
2807.385084,-0.000006
2807.867286,0.000141
2808.349489,0.000189
2808.831692,0.000152
2809.313895,0.000138
2809.796098,0.000159
2810.278301,0.000045
2810.760504,-0.000121
2811.242706,-0.000058
2811.724909,0.000050
2812.207112,0.000038
2812.689315,-0.000015
2813.171518,-0.000074
2813.653721,0.000045
2814.135924,0.000272
2814.618127,0.000266
2815.100329,0.000121
2815.582532,0.000148
2816.064735,0.000287
2816.546938,0.000350
2817.029141,0.000311
2817.511344,0.000169
2817.993547,0.000089
2818.475749,0.000143
2818.957952,0.000181
2819.440155,0.000243
2819.922358,0.000203
2820.404561,-0.000027
2820.886764,-0.000036
2821.368967,0.000195
2821.851169,0.000270
2822.333372,0.000211
2822.815575,0.000245
2823.297778,0.000341
2823.779981,0.000275
2824.262184,0.000200
2824.744387,0.000284
2825.226590,0.000215
2825.708792,0.000054
2826.190995,-0.000000
2826.673198,-0.000011
2827.155401,0.000014
2827.637604,-0.000015
2828.119807,0.000086
2828.602010,0.000303
2829.084212,0.000298
2829.566415,0.000207
2830.048618,0.000176
2830.530821,0.000124
2831.013024,0.000024
2831.495227,0.000052
2831.977430,0.000220
2832.459633,0.000232
2832.941835,0.000192
2833.424038,0.000188
2833.906241,0.000155
2834.388444,0.000160
2834.870647,0.000102
2835.352850,0.000080
2835.835053,0.000133
2836.317255,0.000084
2836.799458,0.000064
2837.281661,0.000100
2837.763864,0.000014
2838.246067,-0.000086
2838.728270,-0.000029
2839.210473,0.000092
2839.692676,0.000125
2840.174878,0.000029
2840.657081,-0.000045
2841.139284,0.000081
2841.621487,0.000225
2842.103690,0.000238
2842.585893,0.000232
2843.068096,0.000229
2843.550298,0.000248
2844.032501,0.000201
2844.514704,0.000108
2844.996907,0.000231
2845.479110,0.000392
2845.961313,0.000362
2846.443516,0.000249
2846.925719,0.000200
2847.407921,0.000311
2847.890124,0.000348
2848.372327,0.000206
2848.854530,0.000207
2849.336733,0.000400
2849.818936,0.000442
2850.301139,0.000319
2850.783341,0.000401
2851.265544,0.000464
2851.747747,0.000303
2852.229950,0.000423
2852.712153,0.000676
2853.194356,0.000578
2853.676559,0.000424
2854.158761,0.000436
2854.640964,0.000441
2855.123167,0.000433
2855.605370,0.000459
2856.087573,0.000512
2856.569776,0.000625
2857.051979,0.000666
2857.534182,0.000553
2858.016384,0.000536
2858.498587,0.000781
2858.980790,0.000984
2859.462993,0.000828
2859.945196,0.000596
2860.427399,0.000675
2860.909602,0.000892
2861.391804,0.000918
2861.874007,0.000750
2862.356210,0.000650
2862.838413,0.000805
2863.320616,0.001010
2863.802819,0.001092
2864.285022,0.001230
2864.767225,0.001386
2865.249427,0.001486
2865.731630,0.001576
2866.213833,0.001609
2866.696036,0.001637
2867.178239,0.001580
2867.660442,0.001603
2868.142645,0.001886
2868.624847,0.001972
2869.107050,0.001937
2869.589253,0.002094
2870.071456,0.002169
2870.553659,0.002212
2871.035862,0.002395
2871.518065,0.002443
2872.000268,0.002275
2872.482470,0.002204
2872.964673,0.002402
2873.446876,0.002702
2873.929079,0.002834
2874.411282,0.002846
2874.893485,0.002805
2875.375688,0.002769
2875.857890,0.003054
2876.340093,0.003248
2876.822296,0.003168
2877.304499,0.003398
2877.786702,0.003736
2878.268905,0.003916
2878.751108,0.003869
2879.233311,0.003676
2879.715513,0.003863
2880.197716,0.004188
2880.679919,0.004263
2881.162122,0.004280
2881.644325,0.004257
2882.126528,0.004216
2882.608731,0.004403
2883.090933,0.004710
2883.573136,0.004830
2884.055339,0.004953
2884.537542,0.005095
2885.019745,0.005041
2885.501948,0.004896
2885.984151,0.004844
2886.466353,0.005046
2886.948556,0.005234
2887.430759,0.005170
2887.912962,0.005107
2888.395165,0.005156
2888.877368,0.005260
2889.359571,0.005268
2889.841774,0.005147
2890.323976,0.005105
2890.806179,0.005294
2891.288382,0.005609
2891.770585,0.005570
2892.252788,0.005224
2892.734991,0.005244
2893.217194,0.005499
2893.699396,0.005462
2894.181599,0.005281
2894.663802,0.005226
2895.146005,0.005275
2895.628208,0.005232
2896.110411,0.005028
2896.592614,0.004941
2897.074817,0.004972
2897.557019,0.004772
2898.039222,0.004436
2898.521425,0.004422
2899.003628,0.004560
2899.485831,0.004346
2899.968034,0.004106
2900.450237,0.004166
2900.932439,0.004090
2901.414642,0.003713
2901.896845,0.003514
2902.379048,0.003701
2902.861251,0.003662
2903.343454,0.003384
2903.825657,0.003350
2904.307860,0.003136
2904.790062,0.002795
2905.272265,0.002673
2905.754468,0.002435
2906.236671,0.002174
2906.718874,0.002125
2907.201077,0.002327
2907.683280,0.002687
2908.165482,0.003126
2908.647685,0.003721
2909.129888,0.004092
2909.612091,0.004343
2910.094294,0.005005
2910.576497,0.005703
2911.058700,0.005957
2911.540902,0.006083
2912.023105,0.006467
2912.505308,0.006723
2912.987511,0.006928
2913.469714,0.007510
2913.951917,0.007835
2914.434120,0.007900
2914.916323,0.008267
2915.398525,0.008408
2915.880728,0.008250
2916.362931,0.008376
2916.845134,0.008451
2917.327337,0.008488
2917.809540,0.008733
2918.291743,0.008508
2918.773945,0.008305
2919.256148,0.008353
2919.738351,0.007988
2920.220554,0.007923
2920.702757,0.007918
2921.184960,0.007602
2921.667163,0.007463
2922.149366,0.007137
2922.631568,0.006951
2923.113771,0.006921
2923.595974,0.006588
2924.078177,0.006246
2924.560380,0.005803
2925.042583,0.005442
2925.524786,0.005270
2926.006988,0.004837
2926.489191,0.004389
2926.971394,0.004201
2927.453597,0.003914
2927.935800,0.003588
2928.418003,0.003431
2928.900206,0.003150
2929.382409,0.002824
2929.864611,0.002554
2930.346814,0.002185
2930.829017,0.001898
2931.311220,0.001721
2931.793423,0.001557
2932.275626,0.001382
2932.757829,0.001203
2933.240031,0.001067
2933.722234,0.000905
2934.204437,0.000769
2934.686640,0.000767
2935.168843,0.000769
2935.651046,0.000558
2936.133249,0.000298
2936.615452,0.000184
2937.097654,0.000117
2937.579857,0.000192
2938.062060,0.000314
2938.544263,0.000299
2939.026466,0.000335
2939.508669,0.000359
2939.990872,0.000273
2940.473074,0.000173
2940.955277,0.000150
2941.437480,0.000258
2941.919683,0.000260
2942.401886,0.000176
2942.884089,0.000166
2943.366292,0.000028
2943.848494,-0.000118
2944.330697,-0.000050
2944.812900,0.000122
2945.295103,0.000169
2945.777306,0.000133
2946.259509,0.000282
2946.741712,0.000376
2947.223915,0.000278
2947.706117,0.000164
2948.188320,0.000038
2948.670523,0.000067
2949.152726,0.000102
2949.634929,0.000023
2950.117132,0.000082
2950.599335,0.000165
2951.081537,0.000119
2951.563740,0.000095
2952.045943,0.000286
2952.528146,0.000507
2953.010349,0.000443
2953.492552,0.000339
2953.974755,0.000323
2954.456958,0.000196
2954.939160,0.000110
2955.421363,0.000136
2955.903566,0.000147
2956.385769,0.000208
2956.867972,0.000272
2957.350175,0.000194
2957.832378,0.000052
2958.314580,0.000015
2958.796783,0.000077
2959.278986,0.000142
2959.761189,0.000187
2960.243392,0.000190
2960.725595,0.000255
2961.207798,0.000387
2961.690001,0.000378
2962.172203,0.000308
2962.654406,0.000293
2963.136609,0.000365
2963.618812,0.000555
2964.101015,0.000587
2964.583218,0.000416
2965.065421,0.000314
2965.547623,0.000301
2966.029826,0.000359
2966.512029,0.000431
2966.994232,0.000372
2967.476435,0.000235
2967.958638,0.000209
2968.440841,0.000319
2968.923044,0.000377
2969.405246,0.000360
2969.887449,0.000357
2970.369652,0.000293
2970.851855,0.000250
2971.334058,0.000339
2971.816261,0.000399
2972.298464,0.000362
2972.780666,0.000366
2973.262869,0.000355
2973.745072,0.000248
2974.227275,0.000257
2974.709478,0.000280
2975.191681,0.000191
2975.673884,0.000261
2976.156086,0.000339
2976.638289,0.000299
2977.120492,0.000359
2977.602695,0.000441
2978.084898,0.000454
2978.567101,0.000412
2979.049304,0.000341
2979.531507,0.000320
2980.013709,0.000325
2980.495912,0.000327
2980.978115,0.000255
2981.460318,0.000129
2981.942521,0.000175
2982.424724,0.000280
2982.906927,0.000228
2983.389129,0.000245
2983.871332,0.000282
2984.353535,0.000120
2984.835738,0.000055
2985.317941,0.000215
2985.800144,0.000304
2986.282347,0.000154
2986.764550,-0.000035
2987.246752,0.000026
2987.728955,0.000163
2988.211158,0.000165
2988.693361,0.000208
2989.175564,0.000234
2989.657767,0.000161
2990.139970,0.000202
2990.622172,0.000227
2991.104375,0.000023
2991.586578,-0.000206
2992.068781,-0.000207
2992.550984,-0.000036
2993.033187,-0.000015
2993.515390,-0.000042
2993.997593,0.000112
2994.479795,0.000096
2994.961998,-0.000039
2995.444201,0.000078
2995.926404,0.000242
2996.408607,0.000213
2996.890810,0.000144
2997.373013,0.000161
2997.855215,0.000132
2998.337418,0.000095
2998.819621,0.000086
2999.301824,-0.000015
2999.784027,-0.000070
3000.266230,-0.000015
3000.748433,0.000068
3001.230635,0.000097
3001.712838,0.000028
3002.195041,0.000034
3002.677244,0.000079
3003.159447,0.000050
3003.641650,0.000001
3004.123853,-0.000077
3004.606056,-0.000062
3005.088258,0.000016
3005.570461,-0.000069
3006.052664,-0.000129
3006.534867,-0.000031
3007.017070,0.000043
3007.499273,0.000056
3007.981476,-0.000038
3008.463678,-0.000157
3008.945881,-0.000011
3009.428084,0.000184
3009.910287,0.000118
3010.392490,0.000044
3010.874693,-0.000025
3011.356896,-0.000191
3011.839099,-0.000156
3012.321301,-0.000020
3012.803504,0.000026
3013.285707,0.000028
3013.767910,-0.000178
3014.250113,-0.000271
3014.732316,-0.000049
3015.214519,-0.000011
3015.696721,-0.000076
3016.178924,-0.000051
3016.661127,-0.000144
3017.143330,-0.000157
3017.625533,-0.000042
3018.107736,-0.000088
3018.589939,-0.000142
3019.072142,-0.000033
3019.554344,-0.000043
3020.036547,-0.000227
3020.518750,-0.000235
3021.000953,-0.000109
3021.483156,-0.000090
3021.965359,-0.000029
3022.447562,-0.000006
3022.929764,-0.000148
3023.411967,-0.000196
3023.894170,-0.000208
3024.376373,-0.000257
3024.858576,-0.000197
3025.340779,-0.000167
3025.822982,-0.000229
3026.305185,-0.000240
3026.787387,-0.000134
3027.269590,-0.000012
3027.751793,0.000003
3028.233996,-0.000045
3028.716199,-0.000126
3029.198402,-0.000120
3029.680605,-0.000032
3030.162807,-0.000111
3030.645010,-0.000134
3031.127213,0.000004
3031.609416,-0.000023
3032.091619,-0.000075
3032.573822,-0.000082
3033.056025,-0.000207
3033.538227,-0.000307
3034.020430,-0.000312
3034.502633,-0.000239
3034.984836,-0.000150
3035.467039,-0.000166
3035.949242,-0.000218
3036.431445,-0.000272
3036.913648,-0.000334
3037.395850,-0.000326
3037.878053,-0.000213
3038.360256,-0.000156
3038.842459,-0.000251
3039.324662,-0.000262
3039.806865,-0.000250
3040.289068,-0.000346
3040.771270,-0.000226
3041.253473,0.000027
3041.735676,0.000114
3042.217879,0.000139
3042.700082,0.000109
3043.182285,-0.000026
3043.664488,-0.000132
3044.146691,-0.000179
3044.628893,-0.000227
3045.111096,-0.000178
3045.593299,-0.000105
3046.075502,-0.000185
3046.557705,-0.000164
3047.039908,-0.000005
3047.522111,-0.000050
3048.004313,-0.000185
3048.486516,-0.000166
3048.968719,-0.000139
3049.450922,-0.000270
3049.933125,-0.000436
3050.415328,-0.000428
3050.897531,-0.000174
3051.379734,0.000081
3051.861936,-0.000002
3052.344139,-0.000233
3052.826342,-0.000351
3053.308545,-0.000443
3053.790748,-0.000464
3054.272951,-0.000334
3054.755154,-0.000167
3055.237356,-0.000091
3055.719559,-0.000106
3056.201762,-0.000124
3056.683965,-0.000142
3057.166168,-0.000198
3057.648371,-0.000220
3058.130574,-0.000189
3058.612777,-0.000185
3059.094979,-0.000185
3059.577182,-0.000263
3060.059385,-0.000366
3060.541588,-0.000285
3061.023791,-0.000172
3061.505994,-0.000186
3061.988197,-0.000288
3062.470399,-0.000267
3062.952602,-0.000120
3063.434805,-0.000205
3063.917008,-0.000278
3064.399211,-0.000195
3064.881414,-0.000286
3065.363617,-0.000386
3065.845819,-0.000372
3066.328022,-0.000293
3066.810225,-0.000280
3067.292428,-0.000430
3067.774631,-0.000411
3068.256834,-0.000299
3068.739037,-0.000299
3069.221240,-0.000179
3069.703442,-0.000084
3070.185645,-0.000174
3070.667848,-0.000206
3071.150051,-0.000209
3071.632254,-0.000295
3072.114457,-0.000324
3072.596660,-0.000320
3073.078862,-0.000397
3073.561065,-0.000445
3074.043268,-0.000263
3074.525471,-0.000033
3075.007674,-0.000149
3075.489877,-0.000332
3075.972080,-0.000320
3076.454283,-0.000376
3076.936485,-0.000377
3077.418688,-0.000139
3077.900891,0.000007
3078.383094,-0.000203
3078.865297,-0.000441
3079.347500,-0.000403
3079.829703,-0.000321
3080.311905,-0.000300
3080.794108,-0.000279
3081.276311,-0.000201
3081.758514,-0.000133
3082.240717,-0.000291
3082.722920,-0.000380
3083.205123,-0.000165
3083.687326,-0.000041
3084.169528,-0.000154
3084.651731,-0.000233
3085.133934,-0.000184
3085.616137,-0.000134
3086.098340,-0.000182
3086.580543,-0.000212
3087.062746,-0.000054
3087.544948,0.000059
3088.027151,0.000052
3088.509354,0.000169
3088.991557,0.000138
3089.473760,-0.000060
3089.955963,-0.000123
3090.438166,-0.000264
3090.920368,-0.000412
3091.402571,-0.000321
3091.884774,-0.000135
3092.366977,-0.000050
3092.849180,-0.000184
3093.331383,-0.000367
3093.813586,-0.000351
3094.295789,-0.000211
3094.777991,-0.000174
3095.260194,-0.000204
3095.742397,-0.000071
3096.224600,0.000047
3096.706803,-0.000051
3097.189006,-0.000183
3097.671209,-0.000236
3098.153411,-0.000337
3098.635614,-0.000501
3099.117817,-0.000453
3099.600020,-0.000304
3100.082223,-0.000297
3100.564426,-0.000248
3101.046629,-0.000277
3101.528832,-0.000422
3102.011034,-0.000359
3102.493237,-0.000222
3102.975440,-0.000234
3103.457643,-0.000271
3103.939846,-0.000363
3104.422049,-0.000508
3104.904252,-0.000395
3105.386454,-0.000232
3105.868657,-0.000349
3106.350860,-0.000388
3106.833063,-0.000194
3107.315266,-0.000083
3107.797469,-0.000112
3108.279672,-0.000025
3108.761875,-0.000038
3109.244077,-0.000220
3109.726280,-0.000120
3110.208483,-0.000168
3110.690686,-0.000428
3111.172889,-0.000245
3111.655092,-0.000057
3112.137295,-0.000180
3112.619497,-0.000252
3113.101700,-0.000203
3113.583903,-0.000200
3114.066106,-0.000189
3114.548309,-0.000018
3115.030512,0.000007
3115.512715,-0.000112
3115.994918,-0.000138
3116.477120,-0.000150
3116.959323,-0.000064
3117.441526,-0.000026
3117.923729,-0.000078
3118.405932,-0.000169
3118.888135,-0.000381
3119.370338,-0.000321
3119.852540,-0.000120
3120.334743,-0.000155
3120.816946,-0.000196
3121.299149,-0.000265
3121.781352,-0.000391
3122.263555,-0.000412
3122.745758,-0.000369
3123.227960,-0.000307
3123.710163,-0.000215
3124.192366,-0.000146
3124.674569,-0.000166
3125.156772,-0.000143
3125.638975,-0.000043
3126.121178,-0.000002
3126.603381,-0.000063
3127.085583,-0.000152
3127.567786,-0.000039
3128.049989,0.000080
3128.532192,-0.000053
3129.014395,-0.000077
3129.496598,-0.000038
3129.978801,-0.000173
3130.461003,-0.000164
3130.943206,0.000019
3131.425409,0.000009
3131.907612,-0.000185
3132.389815,-0.000188
3132.872018,-0.000163
3133.354221,-0.000420
3133.836424,-0.000423
3134.318626,-0.000147
3134.800829,-0.000194
3135.283032,-0.000250
3135.765235,-0.000112
3136.247438,-0.000100
3136.729641,-0.000103
3137.211844,-0.000045
3137.694046,-0.000031
3138.176249,-0.000122
3138.658452,-0.000257
3139.140655,-0.000234
3139.622858,-0.000217
3140.105061,-0.000290
3140.587264,-0.000161
3141.069467,0.000041
3141.551669,0.000094
3142.033872,0.000092
3142.516075,-0.000012
3142.998278,-0.000166
3143.480481,-0.000242
3143.962684,-0.000262
3144.444887,-0.000199
3144.927089,-0.000189
3145.409292,-0.000270
3145.891495,-0.000341
3146.373698,-0.000427
3146.855901,-0.000269
3147.338104,0.000056
3147.820307,0.000075
3148.302510,-0.000083
3148.784712,-0.000165
3149.266915,-0.000128
3149.749118,-0.000036
3150.231321,-0.000032
3150.713524,0.000001
3151.195727,0.000045
3151.677930,0.000025
3152.160132,0.000122
3152.642335,0.000152
3153.124538,0.000037
3153.606741,0.000091
3154.088944,0.000079
3154.571147,-0.000151
3155.053350,-0.000164
3155.535552,0.000001
3156.017755,0.000034
3156.499958,-0.000013
3156.982161,-0.000076
3157.464364,-0.000111
3157.946567,-0.000131
3158.428770,-0.000180
3158.910973,-0.000164
3159.393175,-0.000169
3159.875378,-0.000192
3160.357581,-0.000049
3160.839784,0.000048
3161.321987,-0.000026
3161.804190,-0.000081
3162.286393,-0.000059
3162.768595,-0.000029
3163.250798,-0.000106
3163.733001,-0.000131
3164.215204,-0.000025
3164.697407,-0.000055
3165.179610,-0.000091
3165.661813,-0.000116
3166.144016,-0.000244
3166.626218,-0.000081
3167.108421,0.000175
3167.590624,0.000110
3168.072827,0.000019
3168.555030,-0.000021
3169.037233,0.000017
3169.519436,0.000128
3170.001638,0.000054
3170.483841,0.000082
3170.966044,0.000291
3171.448247,0.000270
3171.930450,0.000063
3172.412653,-0.000135
3172.894856,-0.000173
3173.377059,-0.000041
3173.859261,0.000016
3174.341464,-0.000015
3174.823667,0.000078
3175.305870,0.000272
3175.788073,0.000226
3176.270276,-0.000002
3176.752479,0.000049
3177.234681,0.000234
3177.716884,0.000159
3178.199087,-0.000067
3178.681290,-0.000115
3179.163493,0.000068
3179.645696,0.000159
3180.127899,0.000007
3180.610102,-0.000110
3181.092304,0.000028
3181.574507,0.000204
3182.056710,0.000155
3182.538913,-0.000002
3183.021116,-0.000131
3183.503319,-0.000084
3183.985522,0.000132
3184.467724,0.000134
3184.949927,0.000139
3185.432130,0.000381
3185.914333,0.000412
3186.396536,0.000287
3186.878739,0.000161
3187.360942,-0.000050
3187.843144,-0.000103
3188.325347,0.000014
3188.807550,0.000097
3189.289753,0.000143
3189.771956,0.000228
3190.254159,0.000241
3190.736362,0.000083
3191.218565,-0.000005
3191.700767,0.000052
3192.182970,0.000082
3192.665173,0.000042
3193.147376,0.000017
3193.629579,0.000086
3194.111782,0.000212
3194.593985,0.000222
3195.076187,0.000040
3195.558390,0.000043
3196.040593,0.000267
3196.522796,0.000224
3197.004999,0.000087
3197.487202,0.000101
3197.969405,0.000030
3198.451608,-0.000061
3198.933810,-0.000061
3199.416013,-0.000004
3199.898216,0.000139
3200.380419,0.000248
3200.862622,0.000319
3201.344825,0.000388
3201.827028,0.000264
3202.309230,0.000170
3202.791433,0.000361
3203.273636,0.000414
3203.755839,0.000182
3204.238042,0.000081
3204.720245,0.000151
3205.202448,0.000082
3205.684651,-0.000032
3206.166853,0.000012
3206.649056,0.000092
3207.131259,0.000214
3207.613462,0.000363
3208.095665,0.000381
3208.577868,0.000428
3209.060071,0.000480
3209.542273,0.000232
3210.024476,-0.000053
3210.506679,-0.000001
3210.988882,0.000115
3211.471085,0.000025
3211.953288,-0.000050
3212.435491,0.000095
3212.917693,0.000193
3213.399896,0.000123
3213.882099,0.000109
3214.364302,0.000111
3214.846505,0.000178
3215.328708,0.000379
3215.810911,0.000421
3216.293114,0.000235
3216.775316,0.000086
3217.257519,0.000170
3217.739722,0.000261
3218.221925,0.000207
3218.704128,0.000159
3219.186331,0.000021
3219.668534,0.000015
3220.150736,0.000244
3220.632939,0.000217
3221.115142,0.000130
3221.597345,0.000333
3222.079548,0.000543
3222.561751,0.000489
3223.043954,0.000288
3223.526157,0.000201
3224.008359,0.000156
3224.490562,0.000179
3224.972765,0.000265
3225.454968,0.000155
3225.937171,0.000154
3226.419374,0.000421
3226.901577,0.000465
3227.383779,0.000149
3227.865982,-0.000094
3228.348185,-0.000011
3228.830388,0.000142
3229.312591,0.000163
3229.794794,0.000145
3230.276997,0.000288
3230.759200,0.000390
3231.241402,0.000207
3231.723605,0.000186
3232.205808,0.000251
3232.688011,0.000137
3233.170214,0.000315
3233.652417,0.000522
3234.134620,0.000383
3234.616822,0.000300
3235.099025,0.000205
3235.581228,0.000079
3236.063431,0.000241
3236.545634,0.000334
3237.027837,0.000099
3237.510040,0.000008
3237.992243,0.000174
3238.474445,0.000249
3238.956648,0.000259
3239.438851,0.000227
3239.921054,0.000155
3240.403257,0.000298
3240.885460,0.000450
3241.367663,0.000392
3241.849865,0.000202
3242.332068,0.000023
3242.814271,0.000219
3243.296474,0.000480
3243.778677,0.000399
3244.260880,0.000320
3244.743083,0.000356
3245.225285,0.000302
3245.707488,0.000179
3246.189691,0.000257
3246.671894,0.000340
3247.154097,0.000208
3247.636300,0.000330
3248.118503,0.000579
3248.600706,0.000653
3249.082908,0.000634
3249.565111,0.000388
3250.047314,0.000152
3250.529517,0.000244
3251.011720,0.000453
3251.493923,0.000399
3251.976126,0.000218
3252.458328,0.000238
3252.940531,0.000176
3253.422734,0.000047
3253.904937,0.000064
3254.387140,0.000119
3254.869343,0.000175
3255.351546,0.000131
3255.833749,0.000164
3256.315951,0.000238
3256.798154,0.000270
3257.280357,0.000423
3257.762560,0.000267
3258.244763,-0.000021
3258.726966,-0.000001
3259.209169,0.000053
3259.691371,0.000208
3260.173574,0.000336
3260.655777,0.000188
3261.137980,0.000054
3261.620183,0.000067
3262.102386,0.000060
3262.584589,0.000007
3263.066792,0.000084
3263.548994,0.000189
3264.031197,0.000159
3264.513400,0.000136
3264.995603,0.000180
3265.477806,0.000281
3265.960009,0.000391
3266.442212,0.000458
3266.924414,0.000539
3267.406617,0.000586
3267.888820,0.000540
3268.371023,0.000387
3268.853226,0.000153
3269.335429,0.000044
3269.817632,0.000048
3270.299835,0.000082
3270.782037,0.000273
3271.264240,0.000379
3271.746443,0.000288
3272.228646,0.000289
3272.710849,0.000345
3273.193052,0.000457
3273.675255,0.000435
3274.157457,0.000043
3274.639660,-0.000101
3275.121863,0.000169
3275.604066,0.000239
3276.086269,0.000111
3276.568472,0.000086
3277.050675,0.000171
3277.532877,0.000233
3278.015080,0.000211
3278.497283,0.000147
3278.979486,0.000047
3279.461689,-0.000080
3279.943892,-0.000097
3280.426095,0.000238
3280.908298,0.000574
3281.390500,0.000383
3281.872703,0.000033
3282.354906,-0.000097
3282.837109,-0.000003
3283.319312,0.000227
3283.801515,0.000373
3284.283718,0.000454
3284.765920,0.000402
3285.248123,0.000294
3285.730326,0.000274
3286.212529,0.000187
3286.694732,0.000194
3287.176935,0.000190
3287.659138,0.000030
3288.141341,-0.000033
3288.623543,-0.000111
3289.105746,-0.000197
3289.587949,-0.000228
3290.070152,-0.000178
3290.552355,0.000030
3291.034558,0.000009
3291.516761,-0.000237
3291.998963,-0.000265
3292.481166,-0.000006
3292.963369,0.000176
3293.445572,-0.000016
3293.927775,-0.000128
3294.409978,0.000038
3294.892181,0.000125
3295.374384,0.000106
3295.856586,0.000030
3296.338789,-0.000088
3296.820992,-0.000162
3297.303195,0.000044
3297.785398,0.000318
3298.267601,0.000113
3298.749804,-0.000221
3299.232006,-0.000243
3299.714209,-0.000096
3300.196412,0.000133
3300.678615,0.000383
3301.160818,0.000355
3301.643021,0.000033
3302.125224,-0.000102
3302.607426,-0.000121
3303.089629,-0.000108
3303.571832,0.000137
3304.054035,0.000253
3304.536238,0.000174
3305.018441,-0.000048
3305.500644,-0.000388
3305.982847,-0.000364
3306.465049,-0.000094
3306.947252,-0.000063
3307.429455,-0.000162
3307.911658,-0.000205
3308.393861,-0.000348
3308.876064,-0.000531
3309.358267,-0.000502
3309.840469,-0.000295
3310.322672,-0.000095
3310.804875,-0.000099
3311.287078,-0.000073
3311.769281,0.000126
3312.251484,0.000039
3312.733687,-0.000149
3313.215890,-0.000115
3313.698092,-0.000208
3314.180295,-0.000315
3314.662498,-0.000200
3315.144701,-0.000081
3315.626904,-0.000099
3316.109107,-0.000319
3316.591310,-0.000465
3317.073512,-0.000307
3317.555715,-0.000125
3318.037918,0.000020
3318.520121,-0.000035
3319.002324,-0.000197
3319.484527,0.000071
3319.966730,0.000251
3320.448933,-0.000066
3320.931135,-0.000272
3321.413338,-0.000200
3321.895541,-0.000092
3322.377744,-0.000017
3322.859947,0.000017
3323.342150,-0.000092
3323.824353,-0.000227
3324.306555,-0.000069
3324.788758,0.000147
3325.270961,0.000135
3325.753164,0.000014
3326.235367,-0.000198
3326.717570,-0.000425
3327.199773,-0.000532
3327.681976,-0.000643
3328.164178,-0.000710
3328.646381,-0.000481
3329.128584,-0.000200
3329.610787,-0.000146
3330.092990,-0.000181
3330.575193,-0.000243
3331.057396,-0.000223
3331.539598,-0.000120
3332.021801,-0.000038
3332.504004,0.000041
3332.986207,-0.000097
3333.468410,-0.000346
3333.950613,-0.000477
3334.432816,-0.000585
3334.915018,-0.000410
3335.397221,-0.000082
3335.879424,-0.000118
3336.361627,-0.000336
3336.843830,-0.000390
3337.326033,-0.000170
3337.808236,0.000030
3338.290439,-0.000068
3338.772641,-0.000042
3339.254844,0.000041
3339.737047,-0.000182
3340.219250,-0.000299
3340.701453,-0.000248
3341.183656,-0.000292
3341.665859,-0.000251
3342.148061,-0.000104
3342.630264,0.000002
3343.112467,-0.000007
3343.594670,-0.000068
3344.076873,-0.000102
3344.559076,-0.000092
3345.041279,-0.000092
3345.523482,-0.000264
3346.005684,-0.000217
3346.487887,0.000121
3346.970090,0.000047
3347.452293,-0.000103
3347.934496,0.000036
3348.416699,-0.000100
3348.898902,-0.000311
3349.381104,-0.000259
3349.863307,-0.000321
3350.345510,-0.000463
3350.827713,-0.000397
3351.309916,-0.000269
3351.792119,-0.000159
3352.274322,-0.000004
3352.756525,0.000015
3353.238727,-0.000143
3353.720930,-0.000199
3354.203133,-0.000142
3354.685336,-0.000137
3355.167539,-0.000032
3355.649742,0.000069
3356.131945,-0.000090
3356.614147,-0.000118
3357.096350,0.000094
3357.578553,0.000103
3358.060756,-0.000030
3358.542959,-0.000031
3359.025162,0.000107
3359.507365,0.000235
3359.989568,0.000179
3360.471770,0.000137
3360.953973,0.000221
3361.436176,0.000175
3361.918379,0.000015
3362.400582,-0.000186
3362.882785,-0.000320
3363.364988,-0.000169
3363.847190,-0.000035
3364.329393,-0.000165
3364.811596,-0.000255
3365.293799,-0.000173
3365.776002,-0.000168
3366.258205,-0.000212
3366.740408,-0.000050
3367.222610,-0.000114
3367.704813,-0.000537
3368.187016,-0.000542
3368.669219,-0.000214
3369.151422,-0.000133
3369.633625,-0.000141
3370.115828,-0.000029
3370.598031,-0.000036
3371.080233,-0.000224
3371.562436,-0.000150
3372.044639,0.000123
3372.526842,0.000173
3373.009045,0.000023
3373.491248,-0.000239
3373.973451,-0.000340
3374.455653,-0.000223
3374.937856,-0.000235
3375.420059,-0.000303
3375.902262,-0.000266
3376.384465,-0.000290
3376.866668,-0.000458
3377.348871,-0.000512
3377.831074,-0.000476
3378.313276,-0.000521
3378.795479,-0.000387
3379.277682,-0.000277
3379.759885,-0.000279
3380.242088,-0.000067
3380.724291,-0.000022
3381.206494,-0.000070
3381.688696,0.000093
3382.170899,0.000032
3382.653102,-0.000182
3383.135305,-0.000259
3383.617508,-0.000294
3384.099711,-0.000276
3384.581914,-0.000224
3385.064117,-0.000140
3385.546319,-0.000096
3386.028522,-0.000158
3386.510725,-0.000085
3386.992928,0.000100
3387.475131,0.000116
3387.957334,0.000030
3388.439537,-0.000118
3388.921739,-0.000306
3389.403942,-0.000336
3389.886145,-0.000226
3390.368348,-0.000144
3390.850551,-0.000084
3391.332754,0.000032
3391.814957,0.000085
3392.297160,0.000171
3392.779362,0.000311
3393.261565,0.000088
3393.743768,-0.000262
3394.225971,-0.000295
3394.708174,-0.000206
3395.190377,-0.000123
3395.672580,-0.000033
3396.154782,-0.000004
3396.636985,-0.000109
3397.119188,-0.000098
3397.601391,0.000095
3398.083594,-0.000019
3398.565797,-0.000169
3399.048000,0.000055
3399.530202,0.000212
3400.012405,0.000234
3400.494608,0.000163
3400.976811,-0.000087
3401.459014,-0.000037
3401.941217,0.000169
3402.423420,0.000144
3402.905623,0.000370
3403.387825,0.000599
3403.870028,0.000241
3404.352231,-0.000140
3404.834434,-0.000140
3405.316637,-0.000008
3405.798840,0.000155
3406.281043,0.000261
3406.763245,0.000280
3407.245448,0.000255
3407.727651,0.000126
3408.209854,0.000100
3408.692057,0.000216
3409.174260,0.000160
3409.656463,0.000022
3410.138666,-0.000053
3410.620868,-0.000024
3411.103071,0.000023
3411.585274,-0.000045
3412.067477,0.000004
3412.549680,0.000121
3413.031883,0.000202
3413.514086,0.000231
3413.996288,0.000146
3414.478491,0.000162
3414.960694,0.000139
3415.442897,0.000057
3415.925100,-0.000004
3416.407303,-0.000170
3416.889506,-0.000112
3417.371709,0.000060
3417.853911,0.000051
3418.336114,0.000033
3418.818317,0.000006
3419.300520,-0.000012
3419.782723,-0.000087
3420.264926,-0.000287
3420.747129,-0.000252
3421.229331,0.000061
3421.711534,0.000155
3422.193737,0.000075
3422.675940,0.000043
3423.158143,-0.000006
3423.640346,0.000112
3424.122549,0.000146
3424.604751,-0.000126
3425.086954,-0.000288
3425.569157,-0.000183
3426.051360,0.000055
3426.533563,0.000158
3427.015766,0.000378
3427.497969,0.000811
3427.980172,0.000818
3428.462374,0.000620
3428.944577,0.000415
3429.426780,0.000156
3429.908983,0.000162
3430.391186,0.000106
3430.873389,0.000063
3431.355592,0.000262
3431.837794,0.000276
3432.319997,0.000229
3432.802200,0.000327
3433.284403,0.000392
3433.766606,0.000538
3434.248809,0.000780
3434.731012,0.000710
3435.213215,0.000407
3435.695417,0.000317
3436.177620,0.000326
3436.659823,0.000391
3437.142026,0.000623
3437.624229,0.000721
3438.106432,0.000537
3438.588635,0.000288
3439.070837,0.000080
3439.553040,-0.000034
3440.035243,0.000037
3440.517446,0.000084
3440.999649,0.000120
3441.481852,0.000415
3441.964055,0.000587
3442.446258,0.000357
3442.928460,0.000257
3443.410663,0.000283
3443.892866,0.000065
3444.375069,0.000138
3444.857272,0.000445
3445.339475,0.000433
3445.821678,0.000478
3446.303880,0.000450
3446.786083,0.000167
3447.268286,0.000072
3447.750489,0.000006
3448.232692,-0.000035
3448.714895,0.000224
3449.197098,0.000414
3449.679301,0.000299
3450.161503,0.000307
3450.643706,0.000395
3451.125909,0.000291
3451.608112,0.000455
3452.090315,0.000739
3452.572518,0.000610
3453.054721,0.000443
3453.536923,0.000400
3454.019126,0.000301
3454.501329,0.000195
3454.983532,0.000083
3455.465735,0.000116
3455.947938,0.000152
3456.430141,0.000090
3456.912343,0.000289
3457.394546,0.000377
3457.876749,0.000051
3458.358952,-0.000122
3458.841155,0.000060
3459.323358,0.000296
3459.805561,0.000329
3460.287764,0.000169
3460.769966,-0.000060
3461.252169,-0.000152
3461.734372,0.000016
3462.216575,0.000124
3462.698778,-0.000048
3463.180981,-0.000230
3463.663184,-0.000090
3464.145386,0.000091
3464.627589,0.000118
3465.109792,0.000373
3465.591995,0.000614
3466.074198,0.000393
3466.556401,0.000099
3467.038604,0.000236
3467.520807,0.000326
3468.003009,-0.000007
3468.485212,-0.000096
3468.967415,0.000199
3469.449618,0.000560
3469.931821,0.000741
3470.414024,0.000561
3470.896227,0.000345
3471.378429,0.000125
3471.860632,-0.000057
3472.342835,-0.000088
3472.825038,-0.000129
3473.307241,0.000121
3473.789444,0.000478
3474.271647,0.000465
3474.753850,0.000329
3475.236052,0.000281
3475.718255,0.000412
3476.200458,0.000354
3476.682661,-0.000166
3477.164864,-0.000184
3477.647067,0.000323
3478.129270,0.000334
3478.611472,0.000113
3479.093675,0.000130
3479.575878,0.000201
3480.058081,0.000110
3480.540284,-0.000112
3481.022487,-0.000147
3481.504690,0.000022
3481.986893,0.000237
3482.469095,0.000260
3482.951298,0.000113
3483.433501,0.000206
3483.915704,0.000256
3484.397907,0.000002
3484.880110,-0.000193
3485.362313,-0.000087
3485.844515,0.000064
3486.326718,-0.000128
3486.808921,-0.000196
3487.291124,0.000047
3487.773327,0.000077
3488.255530,-0.000052
3488.737733,-0.000160
3489.219935,-0.000031
3489.702138,0.000266
3490.184341,0.000304
3490.666544,0.000318
3491.148747,0.000393
3491.630950,0.000215
3492.113153,0.000067
3492.595356,0.000218
3493.077558,0.000214
3493.559761,0.000062
3494.041964,0.000250
3494.524167,0.000265
3495.006370,-0.000165
3495.488573,-0.000285
3495.970776,0.000145
3496.452978,0.000545
3496.935181,0.000483
3497.417384,0.000323
3497.899587,0.000373
3498.381790,0.000535
3498.863993,0.000598
3499.346196,0.000410
3499.828399,0.000308
3500.310601,0.000271
3500.792804,0.000038
3501.275007,-0.000186
3501.757210,-0.000153
3502.239413,0.000055
3502.721616,-0.000054
3503.203819,-0.000258
3503.686021,-0.000227
3504.168224,-0.000246
3504.650427,-0.000005
3505.132630,0.000163
3505.614833,-0.000196
3506.097036,-0.000215
3506.579239,0.000128
3507.061442,0.000195
3507.543644,0.000342
3508.025847,0.000683
3508.508050,0.000579
3508.990253,0.000109
3509.472456,-0.000090
3509.954659,-0.000001
3510.436862,0.000183
3510.919064,0.000357
3511.401267,0.000434
3511.883470,0.000336
3512.365673,0.000096
3512.847876,0.000011
3513.330079,-0.000057
3513.812282,-0.000033
3514.294484,0.000225
3514.776687,0.000011
3515.258890,-0.000235
3515.741093,0.000121
3516.223296,0.000169
3516.705499,-0.000103
3517.187702,0.000091
3517.669905,0.000424
3518.152107,0.000249
3518.634310,-0.000123
3519.116513,-0.000015
3519.598716,0.000268
3520.080919,0.000275
3520.563122,0.000285
3521.045325,0.000362
3521.527527,0.000407
3522.009730,0.000388
3522.491933,0.000029
3522.974136,-0.000417
3523.456339,-0.000342
3523.938542,-0.000094
3524.420745,-0.000137
3524.902948,-0.000166
3525.385150,0.000024
3525.867353,0.000250
3526.349556,0.000319
3526.831759,0.000104
3527.313962,-0.000297
3527.796165,-0.000521
3528.278368,-0.000307
3528.760570,-0.000005
3529.242773,-0.000002
3529.724976,0.000047
3530.207179,0.000160
3530.689382,0.000116
3531.171585,0.000294
3531.653788,0.000449
3532.135991,0.000234
3532.618193,0.000155
3533.100396,0.000207
3533.582599,0.000208
3534.064802,0.000436
3534.547005,0.000665
3535.029208,0.000635
3535.511411,0.000578
3535.993613,0.000520
3536.475816,0.000517
3536.958019,0.000705
3537.440222,0.000808
3537.922425,0.000628
3538.404628,0.000445
3538.886831,0.000637
3539.369034,0.000875
3539.851236,0.000770
3540.333439,0.000865
3540.815642,0.001078
3541.297845,0.000878
3541.780048,0.000740
3542.262251,0.000860
3542.744454,0.000958
3543.226656,0.000880
3543.708859,0.000545
3544.191062,0.000309
3544.673265,0.000307
3545.155468,0.000367
3545.637671,0.000375
3546.119874,0.000368
3546.602076,0.000600
3547.084279,0.000567
3547.566482,0.000056
3548.048685,0.000044
3548.530888,0.000555
3549.013091,0.000867
3549.495294,0.000993
3549.977497,0.001144
3550.459699,0.001036
3550.941902,0.000614
3551.424105,0.000489
3551.906308,0.000612
3552.388511,0.000513
3552.870714,0.000704
3553.352917,0.001253
3553.835119,0.001330
3554.317322,0.001167
3554.799525,0.001264
3555.281728,0.001323
3555.763931,0.001363
3556.246134,0.001441
3556.728337,0.001399
3557.210540,0.001363
3557.692742,0.001322
3558.174945,0.001319
3558.657148,0.001578
3559.139351,0.001801
3559.621554,0.001565
3560.103757,0.001217
3560.585960,0.001119
3561.068162,0.001116
3561.550365,0.001284
3562.032568,0.001535
3562.514771,0.001385
3562.996974,0.001007
3563.479177,0.001021
3563.961380,0.001289
3564.443583,0.001313
3564.925785,0.001173
3565.407988,0.000997
3565.890191,0.000916
3566.372394,0.001002
3566.854597,0.000909
3567.336800,0.000888
3567.819003,0.001124
3568.301205,0.001152
3568.783408,0.001176
3569.265611,0.001418
3569.747814,0.001651
3570.230017,0.001911
3570.712220,0.002079
3571.194423,0.002048
3571.676626,0.002097
3572.158828,0.002177
3572.641031,0.002087
3573.123234,0.002219
3573.605437,0.002551
3574.087640,0.002484
3574.569843,0.002270
3575.052046,0.002339
3575.534248,0.002451
3576.016451,0.002498
3576.498654,0.002431
3576.980857,0.002215
3577.463060,0.002209
3577.945263,0.002433
3578.427466,0.002413
3578.909668,0.002153
3579.391871,0.002116
3579.874074,0.002378
3580.356277,0.002483
3580.838480,0.002300
3581.320683,0.002188
3581.802886,0.002191
3582.285089,0.002163
3582.767291,0.002157
3583.249494,0.002175
3583.731697,0.002120
3584.213900,0.001940
3584.696103,0.001581
3585.178306,0.001294
3585.660509,0.001455
3586.142711,0.001555
3586.624914,0.001114
3587.107117,0.000728
3587.589320,0.000972
3588.071523,0.001442
3588.553726,0.001402
3589.035929,0.001231
3589.518132,0.001727
3590.000334,0.002446
3590.482537,0.002688
3590.964740,0.002197
3591.446943,0.001660
3591.929146,0.001770
3592.411349,0.001768
3592.893552,0.001483
3593.375754,0.001515
3593.857957,0.001459
3594.340160,0.001214
3594.822363,0.001191
3595.304566,0.001191
3595.786769,0.001169
3596.268972,0.001257
3596.751175,0.001534
3597.233377,0.002030
3597.715580,0.002356
3598.197783,0.002357
3598.679986,0.002165
3599.162189,0.002112
3599.644392,0.002315
3600.126595,0.002165
3600.608797,0.001957
3601.091000,0.002232
3601.573203,0.002399
3602.055406,0.002405
3602.537609,0.002597
3603.019812,0.002716
3603.502015,0.002690
3603.984217,0.002798
3604.466420,0.002975
3604.948623,0.002852
3605.430826,0.002458
3605.913029,0.002261
3606.395232,0.002277
3606.877435,0.001971
3607.359638,0.001620
3607.841840,0.001829
3608.324043,0.002159
3608.806246,0.002140
3609.288449,0.001462
3609.770652,0.000612
3610.252855,0.000936
3610.735058,0.001640
3611.217260,0.001866
3611.699463,0.002158
3612.181666,0.002183
3612.663869,0.001511
3613.146072,0.000832
3613.628275,0.000908
3614.110478,0.001243
3614.592681,0.001243
3615.074883,0.001322
3615.557086,0.001511
3616.039289,0.001656
3616.521492,0.001738
3617.003695,0.001550
3617.485898,0.001266
3617.968101,0.000916
3618.450303,0.000793
3618.932506,0.001100
3619.414709,0.001110
3619.896912,0.000640
3620.379115,0.000472
3620.861318,0.000860
3621.343521,0.000997
3621.825724,0.000938
3622.307926,0.001211
3622.790129,0.001477
3623.272332,0.001517
3623.754535,0.001232
3624.236738,0.000984
3624.718941,0.001151
3625.201144,0.001190
3625.683346,0.001105
3626.165549,0.001153
3626.647752,0.001167
3627.129955,0.000970
3627.612158,0.000654
3628.094361,0.000259
3628.576564,-0.000547
3629.058767,-0.000892
3629.540969,-0.000750
3630.023172,-0.001142
3630.505375,-0.000717
3630.987578,0.000268
3631.469781,0.000406
3631.951984,0.000543
3632.434187,0.000974
3632.916389,0.001106
3633.398592,0.001096
3633.880795,0.000946
3634.362998,0.000685
3634.845201,0.000738
3635.327404,0.001055
3635.809607,0.001333
3636.291809,0.001424
3636.774012,0.001208
3637.256215,0.001111
3637.738418,0.001483
3638.220621,0.001680
3638.702824,0.001420
3639.185027,0.001315
3639.667230,0.001438
3640.149432,0.001451
3640.631635,0.001405
3641.113838,0.001278
3641.596041,0.001056
3642.078244,0.000990
3642.560447,0.001064
3643.042650,0.000998
3643.524852,0.000731
3644.007055,0.000665
3644.489258,0.000867
3644.971461,0.000845
3645.453664,0.000742
3645.935867,0.000571
3646.418070,0.000014
3646.900273,-0.000384
3647.382475,-0.000712
3647.864678,-0.001224
3648.346881,-0.000865
3648.829084,-0.000204
3649.311287,-0.000720
3649.793490,-0.001392
3650.275693,-0.000987
3650.757895,-0.000663
3651.240098,-0.000691
3651.722301,-0.000438
3652.204504,-0.000009
3652.686707,0.000439
3653.168910,0.000800
3653.651113,0.000735
3654.133316,0.000477
3654.615518,0.000669
3655.097721,0.000827
3655.579924,0.000404
3656.062127,-0.000022
3656.544330,-0.000335
3657.026533,-0.000282
3657.508736,0.000445
3657.990938,0.000963
3658.473141,0.001051
3658.955344,0.001099
3659.437547,0.001143
3659.919750,0.001230
3660.401953,0.001179
3660.884156,0.000876
3661.366359,0.000802
3661.848561,0.000916
3662.330764,0.000814
3662.812967,0.000766
3663.295170,0.000821
3663.777373,0.000845
3664.259576,0.000890
3664.741779,0.000760
3665.223981,0.000691
3665.706184,0.000706
3666.188387,0.000470
3666.670590,0.000381
3667.152793,0.000444
3667.634996,0.000317
3668.117199,0.000259
3668.599401,-0.000011
3669.081604,-0.000690
3669.563807,-0.000664
3670.046010,0.000038
3670.528213,-0.000104
3671.010416,-0.001102
3671.492619,-0.001383
3671.974822,-0.000621
3672.457024,-0.000105
3672.939227,-0.000167
3673.421430,-0.000348
3673.903633,-0.000635
3674.385836,-0.000984
3674.868039,-0.001264
3675.350242,-0.001615
3675.832444,-0.001902
3676.314647,-0.001897
3676.796850,-0.001321
3677.279053,-0.000422
3677.761256,0.000033
3678.243459,0.000016
3678.725662,0.000046
3679.207865,0.000170
3679.690067,0.000006
3680.172270,-0.000219
3680.654473,-0.000000
3681.136676,0.000314
3681.618879,0.000296
3682.101082,0.000256
3682.583285,0.000393
3683.065487,0.000532
3683.547690,0.000676
3684.029893,0.000796
3684.512096,0.000773
3684.994299,0.000668
3685.476502,0.000717
3685.958705,0.000855
3686.440908,0.000668
3686.923110,0.000396
3687.405313,0.000233
3687.887516,-0.000267
3688.369719,-0.001057
3688.851922,-0.001789
3689.334125,-0.001473
3689.816328,-0.000401
3690.298530,-0.000197
3690.780733,-0.000480
3691.262936,-0.000576
3691.745139,-0.000692
3692.227342,-0.000332
3692.709545,0.000084
3693.191748,0.000149
3693.673951,0.000480
3694.156153,0.000803
3694.638356,0.000691
3695.120559,0.000559
3695.602762,0.000532
3696.084965,0.000549
3696.567168,0.000836
3697.049371,0.001029
3697.531573,0.000808
3698.013776,0.000632
3698.495979,0.000610
3698.978182,0.000560
3699.460385,0.000523
3699.942588,0.000503
3700.424791,0.000384
3700.906993,0.000268
3701.389196,0.000182
3701.871399,-0.000172
3702.353602,-0.000289
3702.835805,0.000197
3703.318008,0.000585
3703.800211,0.000737
3704.282414,0.000875
3704.764616,0.000925
3705.246819,0.000775
3705.729022,0.000726
3706.211225,0.000951
3706.693428,0.000936
3707.175631,0.000607
3707.657834,0.000446
3708.140036,0.000442
3708.622239,0.000170
3709.104442,-0.000331
3709.586645,-0.000759
3710.068848,-0.000850
3710.551051,-0.000366
3711.033254,0.000080
3711.515457,0.000059
3711.997659,-0.000260
3712.479862,-0.000713
3712.962065,-0.000651
3713.444268,-0.000027
3713.926471,0.000511
3714.408674,0.000893
3714.890877,0.001022
3715.373079,0.000840
3715.855282,0.000719
3716.337485,0.000814
3716.819688,0.000886
3717.301891,0.000882
3717.784094,0.000766
3718.266297,0.000685
3718.748500,0.000732
3719.230702,0.000491
3719.712905,0.000345
3720.195108,0.000670
3720.677311,0.000824
3721.159514,0.000766
3721.641717,0.000721
3722.123920,0.000513
3722.606122,0.000185
3723.088325,0.000149
3723.570528,0.000551
3724.052731,0.000921
3724.534934,0.000999
3725.017137,0.000924
3725.499340,0.000818
3725.981542,0.000703
3726.463745,0.000463
3726.945948,0.000150
3727.428151,0.000117
3727.910354,0.000530
3728.392557,0.000913
3728.874760,0.000956
3729.356963,0.000892
3729.839165,0.000682
3730.321368,0.000555
3730.803571,0.000685
3731.285774,0.000595
3731.767977,0.000265
3732.250180,-0.000263
3732.732383,-0.000682
3733.214585,-0.000347
3733.696788,0.000202
3734.178991,0.000443
3734.661194,0.000233
3735.143397,-0.000276
3735.625600,-0.000510
3736.107803,-0.000293
3736.590006,-0.000047
3737.072208,-0.000062
3737.554411,0.000254
3738.036614,0.000944
3738.518817,0.001083
3739.001020,0.000796
3739.483223,0.000637
3739.965426,0.000600
3740.447628,0.000786
3740.929831,0.000978
3741.412034,0.000807
3741.894237,0.000695
3742.376440,0.000817
3742.858643,0.000796
3743.340846,0.000700
3743.823049,0.000430
3744.305251,-0.000288
3744.787454,-0.001267
3745.269657,-0.001735
3745.751860,-0.001124
3746.234063,-0.000260
3746.716266,0.000352
3747.198469,0.000698
3747.680671,0.000516
3748.162874,0.000273
3748.645077,0.000403
3749.127280,0.000158
3749.609483,-0.000892
3750.091686,-0.001440
3750.573889,-0.000430
3751.056092,0.000600
3751.538294,0.000701
3752.020497,0.000117
3752.502700,-0.000792
3752.984903,-0.000958
3753.467106,0.000055
3753.949309,0.001018
3754.431512,0.001350
3754.913714,0.001316
3755.395917,0.001416
3755.878120,0.001517
3756.360323,0.001192
3756.842526,0.000749
3757.324729,0.000825
3757.806932,0.001413
3758.289134,0.001745
3758.771337,0.001478
3759.253540,0.001109
3759.735743,0.000684
3760.217946,0.000197
3760.700149,0.000462
3761.182352,0.001215
3761.664555,0.001597
3762.146757,0.001793
3762.628960,0.001841
3763.111163,0.001714
3763.593366,0.001719
3764.075569,0.001757
3764.557772,0.001691
3765.039975,0.001502
3765.522177,0.001309
3766.004380,0.001157
3766.486583,0.001101
3766.968786,0.001322
3767.450989,0.001346
3767.933192,0.001152
3768.415395,0.001245
3768.897598,0.001417
3769.379800,0.001368
3769.862003,0.000924
3770.344206,0.000397
3770.826409,0.000612
3771.308612,0.001244
3771.790815,0.001554
3772.273018,0.001733
3772.755220,0.001910
3773.237423,0.001886
3773.719626,0.001933
3774.201829,0.002079
3774.684032,0.002075
3775.166235,0.002032
3775.648438,0.001922
3776.130641,0.001756
3776.612843,0.001589
3777.095046,0.001463
3777.577249,0.001533
3778.059452,0.001584
3778.541655,0.001481
3779.023858,0.001423
3779.506061,0.001239
3779.988263,0.000885
3780.470466,0.000941
3780.952669,0.001319
3781.434872,0.001607
3781.917075,0.001924
3782.399278,0.001985
3782.881481,0.001803
3783.363684,0.001816
3783.845886,0.001830
3784.328089,0.001659
3784.810292,0.001319
3785.292495,0.001064
3785.774698,0.001180
3786.256901,0.001515
3786.739104,0.001771
3787.221306,0.001772
3787.703509,0.001762
3788.185712,0.001729
3788.667915,0.001556
3789.150118,0.001568
3789.632321,0.001657
3790.114524,0.001655
3790.596726,0.001584
3791.078929,0.001550
3791.561132,0.001696
3792.043335,0.001593
3792.525538,0.001221
3793.007741,0.001159
3793.489944,0.001317
3793.972147,0.001292
3794.454349,0.001271
3794.936552,0.001504
3795.418755,0.001564
3795.900958,0.001116
3796.383161,0.000432
3796.865364,0.000006
3797.347567,0.000241
3797.829769,0.000682
3798.311972,0.000757
3798.794175,0.000672
3799.276378,0.000629
3799.758581,0.000587
3800.240784,0.000512
3800.722987,0.000337
3801.205190,-0.000067
3801.687392,-0.000828
3802.169595,-0.001190
3802.651798,-0.000596
3803.134001,0.000017
3803.616204,0.000440
3804.098407,0.000832
3804.580610,0.000842
3805.062812,0.000776
3805.545015,0.001018
3806.027218,0.001180
3806.509421,0.000942
3806.991624,0.000262
3807.473827,-0.000338
3807.956030,-0.000067
3808.438233,0.000529
3808.920435,0.000833
3809.402638,0.001101
3809.884841,0.001306
3810.367044,0.001205
3810.849247,0.001069
3811.331450,0.001159
3811.813653,0.001284
3812.295855,0.001283
3812.778058,0.001104
3813.260261,0.000860
3813.742464,0.000790
3814.224667,0.000752
3814.706870,0.000635
3815.189073,0.000655
3815.671275,0.000560
3816.153478,-0.000256
3816.635681,-0.001182
3817.117884,-0.000790
3817.600087,0.000084
3818.082290,0.000318
3818.564493,0.000273
3819.046696,0.000314
3819.528898,0.000287
3820.011101,0.000092
3820.493304,-0.000383
3820.975507,-0.001022
3821.457710,-0.001243
3821.939913,-0.001161
3822.422116,-0.000973
3822.904318,-0.000260
3823.386521,0.000305
3823.868724,0.000326
3824.350927,0.000446
3824.833130,0.000583
3825.315333,0.000535
3825.797536,0.000661
3826.279739,0.000922
3826.761941,0.000921
3827.244144,0.000564
3827.726347,0.000291
3828.208550,0.000512
3828.690753,0.000950
3829.172956,0.001064
3829.655159,0.000892
3830.137361,0.000767
3830.619564,0.000655
3831.101767,0.000487
3831.583970,0.000198
3832.066173,-0.000251
3832.548376,-0.000293
3833.030579,0.000148
3833.512782,0.000412
3833.994984,0.000466
3834.477187,0.000399
3834.959390,-0.000032
3835.441593,-0.000621
3835.923796,-0.000588
3836.405999,-0.000099
3836.888202,-0.000053
3837.370404,-0.000295
3837.852607,-0.000658
3838.334810,-0.001335
3838.817013,-0.001267
3839.299216,-0.000341
3839.781419,0.000179
3840.263622,0.000012
3840.745825,-0.000243
3841.228027,-0.000282
3841.710230,-0.000004
3842.192433,0.000485
3842.674636,0.000637
3843.156839,0.000466
3843.639042,0.000228
3844.121245,-0.000050
3844.603447,-0.000091
3845.085650,0.000161
3845.567853,0.000459
3846.050056,0.000593
3846.532259,0.000537
3847.014462,0.000493
3847.496665,0.000453
3847.978867,0.000409
3848.461070,0.000475
3848.943273,0.000563
3849.425476,0.000472
3849.907679,0.000174
3850.389882,-0.000064
3850.872085,-0.000199
3851.354288,-0.000409
3851.836490,-0.000695
3852.318693,-0.001139
3852.800896,-0.001310
3853.283099,-0.000965
3853.765302,-0.001083
3854.247505,-0.002083
3854.729708,-0.003014
3855.211910,-0.002454
3855.694113,-0.001198
3856.176316,-0.000472
3856.658519,-0.000134
3857.140722,-0.000053
3857.622925,-0.000221
3858.105128,-0.000154
3858.587331,0.000085
3859.069533,0.000260
3859.551736,0.000396
3860.033939,0.000314
3860.516142,0.000132
3860.998345,0.000158
3861.480548,0.000149
3861.962751,-0.000305
3862.444953,-0.000635
3862.927156,-0.000146
3863.409359,0.000311
3863.891562,0.000175
3864.373765,-0.000006
3864.855968,-0.000264
3865.338171,-0.000839
3865.820374,-0.001040
3866.302576,-0.000415
3866.784779,0.000173
3867.266982,0.000178
3867.749185,0.000026
3868.231388,0.000071
3868.713591,0.000158
3869.195794,-0.000279
3869.677996,-0.001045
3870.160199,-0.001289
3870.642402,-0.001341
3871.124605,-0.001263
3871.606808,-0.000658
3872.089011,-0.000011
3872.571214,0.000357
3873.053417,0.000415
3873.535619,0.000169
3874.017822,-0.000187
3874.500025,-0.000449
3874.982228,-0.000458
3875.464431,-0.000228
3875.946634,0.000053
3876.428837,0.000261
3876.911039,0.000335
3877.393242,0.000284
3877.875445,0.000245
3878.357648,0.000250
3878.839851,0.000096
3879.322054,-0.000131
3879.804257,-0.000290
3880.286459,-0.000707
3880.768662,-0.001116
3881.250865,-0.000854
3881.733068,-0.000335
3882.215271,0.000004
3882.697474,0.000101
3883.179677,-0.000013
3883.661880,0.000010
3884.144082,0.000052
3884.626285,-0.000096
3885.108488,-0.000201
3885.590691,-0.000377
3886.072894,-0.000840
3886.555097,-0.000989
3887.037300,-0.000365
3887.519502,0.000102
3888.001705,0.000125
3888.483908,0.000355
3888.966111,0.000558
3889.448314,0.000602
3889.930517,0.000746
3890.412720,0.000531
3890.894923,0.000002
3891.377125,-0.000443
3891.859328,-0.000745
3892.341531,-0.000524
3892.823734,-0.000029
3893.305937,0.000197
3893.788140,0.000289
3894.270343,0.000320
3894.752545,0.000244
3895.234748,0.000202
3895.716951,0.000196
3896.199154,0.000133
3896.681357,0.000049
3897.163560,-0.000067
3897.645763,-0.000263
3898.127966,-0.000441
3898.610168,-0.000438
3899.092371,-0.000456
3899.574574,-0.001095
3900.056777,-0.001542
3900.538980,-0.000773
3901.021183,-0.000151
3901.503386,-0.000425
3901.985588,-0.001008
3902.467791,-0.001337
3902.949994,-0.001018
3903.432197,-0.000494
3903.914400,-0.000259
3904.396603,-0.000746
3904.878806,-0.001447
3905.361008,-0.001134
3905.843211,-0.000531
3906.325414,-0.000380
3906.807617,-0.000196
3907.289820,0.000190
3907.772023,0.000349
3908.254226,0.000169
3908.736429,0.000085
3909.218631,0.000203
3909.700834,0.000365
3910.183037,0.000400
3910.665240,0.000285
3911.147443,0.000279
3911.629646,0.000325
3912.111849,0.000257
3912.594051,0.000148
3913.076254,0.000175
3913.558457,0.000272
3914.040660,0.000207
3914.522863,0.000108
3915.005066,0.000090
3915.487269,0.000045
3915.969472,-0.000023
3916.451674,-0.000080
3916.933877,-0.000250
3917.416080,-0.000604
3917.898283,-0.000726
3918.380486,-0.000240
3918.862689,0.000186
3919.344892,0.000021
3919.827094,-0.000136
3920.309297,-0.000133
3920.791500,-0.000200
3921.273703,0.000014
3921.755906,0.000363
3922.238109,0.000449
3922.720312,0.000224
3923.202515,-0.000199
3923.684717,-0.000586
3924.166920,-0.000695
3924.649123,-0.000516
3925.131326,-0.000527
3925.613529,-0.000707
3926.095732,-0.000530
3926.577935,-0.000126
3927.060137,0.000145
3927.542340,0.000041
3928.024543,-0.000195
3928.506746,-0.000028
3928.988949,0.000243
3929.471152,0.000147
3929.953355,-0.000082
3930.435558,-0.000135
3930.917760,-0.000063
3931.399963,0.000059
3931.882166,0.000218
3932.364369,0.000158
3932.846572,-0.000157
3933.328775,-0.000230
3933.810978,-0.000028
3934.293180,-0.000019
3934.775383,-0.000092
3935.257586,-0.000025
3935.739789,-0.000022
3936.221992,0.000009
3936.704195,0.000187
3937.186398,0.000291
3937.668600,0.000262
3938.150803,0.000093
3938.633006,-0.000256
3939.115209,-0.000496
3939.597412,-0.000420
3940.079615,-0.000343
3940.561818,-0.000397
3941.044021,-0.000370
3941.526223,-0.000322
3942.008426,-0.000267
3942.490629,-0.000294
3942.972832,-0.000670
3943.455035,-0.000835
3943.937238,-0.000403
3944.419441,-0.000246
3944.901643,-0.000424
3945.383846,-0.000270
3945.866049,-0.000155
3946.348252,-0.000261
3946.830455,-0.000290
3947.312658,-0.000388
3947.794861,-0.000431
3948.277064,-0.000290
3948.759266,-0.000177
3949.241469,-0.000044
3949.723672,0.000066
3950.205875,0.000155
3950.688078,0.000361
3951.170281,0.000351
3951.652484,0.000122
3952.134686,0.000066
3952.616889,-0.000005
3953.099092,-0.000118
3953.581295,-0.000094
3954.063498,-0.000113
3954.545701,-0.000040
3955.027904,0.000214
3955.510107,0.000333
3955.992309,0.000234
3956.474512,0.000044
3956.956715,-0.000089
3957.438918,-0.000045
3957.921121,0.000133
3958.403324,0.000213
3958.885527,0.000075
3959.367729,-0.000048
3959.849932,-0.000008
3960.332135,0.000059
3960.814338,0.000145
3961.296541,0.000173
3961.778744,-0.000000
3962.260947,-0.000110
3962.743150,-0.000060
3963.225352,-0.000122
3963.707555,-0.000189
3964.189758,-0.000046
3964.671961,0.000107
3965.154164,0.000030
3965.636367,-0.000131
3966.118570,-0.000177
3966.600772,-0.000158
3967.082975,-0.000092
3967.565178,0.000018
3968.047381,0.000053
3968.529584,0.000015
3969.011787,-0.000074
3969.493990,-0.000273
3969.976192,-0.000268
3970.458395,-0.000096
3970.940598,-0.000298
3971.422801,-0.000303
3971.905004,0.000042
3972.387207,-0.000182
3972.869410,-0.000503
3973.351613,-0.000283
3973.833815,0.000057
3974.316018,0.000148
3974.798221,0.000081
3975.280424,0.000255
3975.762627,0.000269
3976.244830,-0.000123
3976.727033,-0.000229
3977.209235,-0.000095
3977.691438,-0.000032
3978.173641,0.000072
3978.655844,0.000173
3979.138047,0.000211
3979.620250,0.000192
3980.102453,0.000112
3980.584656,0.000049
3981.066858,0.000073
3981.549061,0.000124
3982.031264,0.000229
3982.513467,0.000290
3982.995670,0.000164
3983.477873,0.000098
3983.960076,0.000174
3984.442278,0.000188
3984.924481,0.000075
3985.406684,0.000014
3985.888887,0.000103
3986.371090,0.000049
3986.853293,-0.000215
3987.335496,-0.000366
3987.817699,-0.000194
3988.299901,0.000096
3988.782104,0.000087
3989.264307,-0.000081
3989.746510,0.000005
3990.228713,0.000225
3990.710916,0.000172
3991.193119,0.000066
3991.675321,0.000299
3992.157524,0.000412
3992.639727,0.000250
3993.121930,0.000157
3993.604133,0.000049
3994.086336,-0.000058
3994.568539,-0.000193
3995.050742,-0.000347
3995.532944,-0.000251
3996.015147,-0.000053
3996.497350,0.000016
3996.979553,-0.000014
3997.461756,0.000017
3997.943959,0.000056
3998.426162,-0.000098
3998.908364,-0.000119
3999.390567,0.000036
3999.872770,-0.000051
4000.354973,-0.000149
