XLabel,Wavenumber
YLabel,Absorbance
FileType,Absorbance
DisplayDirection,20300
PeakDirection,20312
899.790547,0.001066
900.272750,0.001526
900.754953,0.000658
901.237156,-0.000262
901.719359,-0.000011
902.201562,0.001062
902.683764,0.001081
903.165967,0.001011
903.648170,0.000886
904.130373,-0.000250
904.612576,-0.000218
905.094779,0.000517
905.576982,0.000396
906.059184,0.000371
906.541387,0.000647
907.023590,0.000348
907.505793,-0.000378
907.987996,0.000056
908.470199,0.001274
908.952402,0.001635
909.434605,0.001056
909.916807,0.000142
910.399010,-0.000091
910.881213,0.000668
911.363416,0.001472
911.845619,0.000798
912.327822,-0.000526
912.810025,-0.000138
913.292227,0.000672
913.774430,0.000631
914.256633,0.000593
914.738836,0.000821
915.221039,0.001248
915.703242,0.001673
916.185445,0.002083
916.667648,0.001459
917.149850,0.000420
917.632053,0.000641
918.114256,0.000665
918.596459,0.000207
919.078662,-0.000334
919.560865,-0.000596
920.043068,0.000308
920.525270,0.000382
921.007473,-0.000100
921.489676,0.000390
921.971879,0.000506
922.454082,0.000441
922.936285,0.000241
923.418488,-0.000237
923.900690,0.000240
924.382893,0.000695
924.865096,0.000264
925.347299,-0.000051
925.829502,-0.000254
926.311705,-0.000293
926.793908,0.000168
927.276111,0.000158
927.758313,-0.000526
928.240516,-0.000398
928.722719,0.000512
929.204922,0.000728
929.687125,0.000465
930.169328,0.000243
930.651531,-0.000010
931.133733,0.000184
931.615936,0.000279
932.098139,-0.000091
932.580342,0.000215
933.062545,0.000910
933.544748,0.000770
934.026951,0.000664
934.509154,0.001061
934.991356,0.000674
935.473559,0.000184
935.955762,0.000292
936.437965,0.000164
936.920168,-0.000057
937.402371,-0.000180
937.884574,-0.000038
938.366776,0.000200
938.848979,0.000204
939.331182,0.000257
939.813385,0.000269
940.295588,0.000416
940.777791,0.000528
941.259994,0.000188
941.742197,-0.000385
942.224399,-0.000557
942.706602,-0.000098
943.188805,-0.000072
943.671008,-0.000369
944.153211,-0.000470
944.635414,-0.000424
945.117617,0.000089
945.599819,-0.000004
946.082022,-0.000515
946.564225,-0.000296
947.046428,-0.000218
947.528631,-0.000369
948.010834,-0.000170
948.493037,0.000070
948.975240,0.000156
949.457442,0.000098
949.939645,-0.000211
950.421848,-0.000381
950.904051,-0.000021
951.386254,0.000184
951.868457,-0.000119
952.350660,-0.000469
952.832862,-0.000284
953.315065,0.000188
953.797268,-0.000048
954.279471,-0.000185
954.761674,0.000395
955.243877,0.000585
955.726080,0.000406
956.208282,0.000258
956.690485,0.000025
957.172688,0.000013
957.654891,0.000349
958.137094,0.000478
958.619297,0.000088
959.101500,-0.000233
959.583703,-0.000337
960.065905,-0.000506
960.548108,-0.000489
961.030311,-0.000444
961.512514,-0.000596
961.994717,-0.000543
962.476920,-0.000180
962.959123,0.000223
963.441325,0.000300
963.923528,0.000016
964.405731,0.000044
964.887934,0.000500
965.370137,0.000727
965.852340,0.000464
966.334543,0.000119
966.816746,0.000147
967.298948,0.000229
967.781151,0.000199
968.263354,0.000275
968.745557,0.000091
969.227760,-0.000240
969.709963,-0.000267
970.192166,-0.000236
970.674368,-0.000314
971.156571,-0.000264
971.638774,-0.000216
972.120977,-0.000370
972.603180,-0.000230
973.085383,-0.000027
973.567586,-0.000251
974.049789,-0.000262
974.531991,-0.000178
975.014194,-0.000251
975.496397,-0.000072
975.978600,0.000033
976.460803,-0.000058
976.943006,-0.000125
977.425209,-0.000154
977.907411,-0.000032
978.389614,0.000054
978.871817,-0.000026
979.354020,-0.000149
979.836223,-0.000279
980.318426,-0.000354
980.800629,-0.000335
981.282831,-0.000197
981.765034,-0.000157
982.247237,-0.000263
982.729440,-0.000202
983.211643,-0.000120
983.693846,-0.000028
984.176049,0.000132
984.658252,0.000070
985.140454,0.000003
985.622657,0.000042
986.104860,-0.000042
986.587063,-0.000195
987.069266,-0.000235
987.551469,-0.000053
988.033672,0.000048
988.515874,-0.000114
988.998077,-0.000239
989.480280,-0.000161
989.962483,-0.000040
990.444686,-0.000087
990.926889,-0.000151
991.409092,-0.000161
991.891295,-0.000326
992.373497,-0.000374
992.855700,-0.000071
993.337903,0.000072
993.820106,-0.000128
994.302309,-0.000240
994.784512,-0.000275
995.266715,-0.000230
995.748917,-0.000023
996.231120,-0.000070
996.713323,-0.000233
997.195526,-0.000144
997.677729,-0.000136
998.159932,-0.000237
998.642135,-0.000159
999.124338,-0.000075
999.606540,-0.000111
1000.088743,-0.000051
1000.570946,0.000107
1001.053149,0.000069
1001.535352,-0.000099
1002.017555,-0.000090
1002.499758,-0.000070
1002.981960,-0.000100
1003.464163,0.000034
1003.946366,0.000158
1004.428569,0.000266
1004.910772,0.000366
1005.392975,0.000225
1005.875178,0.000024
1006.357381,-0.000002
1006.839583,0.000038
1007.321786,-0.000103
1007.803989,-0.000303
1008.286192,-0.000224
1008.768395,-0.000056
1009.250598,0.000024
1009.732801,0.000062
1010.215003,0.000046
1010.697206,-0.000036
1011.179409,-0.000162
1011.661612,-0.000097
1012.143815,0.000090
1012.626018,0.000101
1013.108221,0.000032
1013.590423,0.000028
1014.072626,0.000004
1014.554829,-0.000063
1015.037032,-0.000101
1015.519235,-0.000197
1016.001438,-0.000228
1016.483641,-0.000115
1016.965844,-0.000135
1017.448046,-0.000197
1017.930249,-0.000154
1018.412452,-0.000050
1018.894655,-0.000024
1019.376858,-0.000197
1019.859061,-0.000225
1020.341264,-0.000119
1020.823466,-0.000146
1021.305669,-0.000144
1021.787872,-0.000025
1022.270075,0.000137
1022.752278,0.000154
1023.234481,0.000098
1023.716684,0.000027
1024.198887,-0.000099
1024.681089,0.000056
1025.163292,0.000146
1025.645495,-0.000067
1026.127698,-0.000090
1026.609901,-0.000116
1027.092104,-0.000179
1027.574307,-0.000067
1028.056509,-0.000081
1028.538712,-0.000179
1029.020915,-0.000201
1029.503118,-0.000219
1029.985321,-0.000163
1030.467524,-0.000011
1030.949727,0.000045
1031.431930,-0.000051
1031.914132,-0.000090
1032.396335,-0.000118
1032.878538,-0.000240
1033.360741,-0.000275
1033.842944,-0.000110
1034.325147,0.000125
1034.807350,0.000217
1035.289552,0.000224
1035.771755,0.000158
1036.253958,-0.000070
1036.736161,-0.000170
1037.218364,-0.000101
1037.700567,-0.000068
1038.182770,-0.000096
1038.664973,-0.000137
1039.147175,-0.000073
1039.629378,-0.000060
1040.111581,-0.000176
1040.593784,-0.000223
1041.075987,-0.000204
1041.558190,-0.000065
1042.040393,0.000133
1042.522595,0.000155
1043.004798,0.000091
1043.487001,0.000070
1043.969204,0.000005
1044.451407,-0.000067
1044.933610,-0.000014
1045.415813,0.000026
1045.898015,0.000019
1046.380218,0.000026
1046.862421,-0.000030
1047.344624,0.000021
1047.826827,0.000172
1048.309030,0.000126
1048.791233,-0.000109
1049.273436,-0.000236
1049.755638,-0.000117
1050.237841,-0.000089
1050.720044,-0.000188
1051.202247,-0.000118
1051.684450,-0.000066
1052.166653,-0.000057
1052.648856,0.000020
1053.131058,0.000026
1053.613261,-0.000038
1054.095464,-0.000139
1054.577667,-0.000113
1055.059870,0.000082
1055.542073,0.000090
1056.024276,-0.000109
1056.506479,-0.000198
1056.988681,-0.000132
1057.470884,-0.000099
1057.953087,-0.000127
1058.435290,-0.000057
1058.917493,0.000071
1059.399696,0.000059
1059.881899,0.000023
1060.364101,0.000057
1060.846304,-0.000047
1061.328507,-0.000148
1061.810710,-0.000113
1062.292913,-0.000101
1062.775116,-0.000094
1063.257319,-0.000139
1063.739522,-0.000218
1064.221724,-0.000184
1064.703927,-0.000130
1065.186130,-0.000146
1065.668333,-0.000140
1066.150536,-0.000060
1066.632739,0.000044
1067.114942,0.000149
1067.597144,0.000126
1068.079347,-0.000055
1068.561550,-0.000150
1069.043753,-0.000088
1069.525956,0.000011
1070.008159,-0.000004
1070.490362,-0.000045
1070.972564,0.000040
1071.454767,0.000059
1071.936970,0.000009
1072.419173,0.000067
1072.901376,0.000189
1073.383579,0.000264
1073.865782,0.000294
1074.347985,0.000324
1074.830187,0.000228
1075.312390,0.000045
1075.794593,0.000011
1076.276796,0.000093
1076.758999,0.000126
1077.241202,0.000033
1077.723405,-0.000011
1078.205607,0.000041
1078.687810,0.000005
1079.170013,0.000026
1079.652216,0.000110
1080.134419,0.000148
1080.616622,0.000193
1081.098825,0.000075
1081.581028,-0.000019
1082.063230,0.000128
1082.545433,0.000193
1083.027636,0.000218
1083.509839,0.000317
1083.992042,0.000296
1084.474245,0.000222
1084.956448,0.000185
1085.438650,0.000125
1085.920853,0.000072
1086.403056,0.000067
1086.885259,0.000062
1087.367462,0.000087
1087.849665,0.000174
1088.331868,0.000149
1088.814071,0.000038
1089.296273,0.000076
1089.778476,0.000139
1090.260679,0.000050
1090.742882,-0.000003
1091.225085,0.000078
1091.707288,0.000141
1092.189491,0.000085
1092.671693,-0.000020
1093.153896,0.000043
1093.636099,0.000219
1094.118302,0.000251
1094.600505,0.000223
1095.082708,0.000183
1095.564911,0.000134
1096.047114,0.000188
1096.529316,0.000144
1097.011519,0.000039
1097.493722,0.000093
1097.975925,0.000084
1098.458128,-0.000018
1098.940331,-0.000024
1099.422534,0.000085
1099.904736,0.000217
1100.386939,0.000211
1100.869142,0.000169
1101.351345,0.000200
1101.833548,0.000197
1102.315751,0.000211
1102.797954,0.000182
1103.280156,0.000032
1103.762359,-0.000013
1104.244562,0.000139
1104.726765,0.000260
1105.208968,0.000195
1105.691171,0.000104
1106.173374,0.000163
1106.655577,0.000259
1107.137779,0.000225
1107.619982,0.000119
1108.102185,0.000110
1108.584388,0.000128
1109.066591,0.000064
1109.548794,0.000059
1110.030997,0.000137
1110.513199,0.000180
1110.995402,0.000186
1111.477605,0.000158
1111.959808,0.000103
1112.442011,0.000094
1112.924214,0.000157
1113.406417,0.000191
1113.888620,0.000142
1114.370822,0.000124
1114.853025,0.000176
1115.335228,0.000309
1115.817431,0.000455
1116.299634,0.000381
1116.781837,0.000213
1117.264040,0.000241
1117.746242,0.000288
1118.228445,0.000239
1118.710648,0.000289
1119.192851,0.000376
1119.675054,0.000360
1120.157257,0.000320
1120.639460,0.000228
1121.121663,0.000025
1121.603865,-0.000092
1122.086068,-0.000010
1122.568271,0.000064
1123.050474,0.000059
1123.532677,0.000080
1124.014880,0.000088
1124.497083,0.000100
1124.979285,0.000171
1125.461488,0.000178
1125.943691,0.000099
1126.425894,0.000061
1126.908097,0.000041
1127.390300,-0.000020
1127.872503,0.000023
1128.354706,0.000146
1128.836908,0.000136
1129.319111,0.000117
1129.801314,0.000166
1130.283517,0.000096
1130.765720,0.000008
1131.247923,0.000074
1131.730126,0.000162
1132.212328,0.000130
1132.694531,0.000005
1133.176734,-0.000067
1133.658937,0.000025
1134.141140,0.000095
1134.623343,-0.000062
1135.105546,-0.000170
1135.587748,-0.000054
1136.069951,-0.000007
1136.552154,-0.000052
1137.034357,-0.000024
1137.516560,0.000042
1137.998763,0.000048
1138.480966,-0.000008
1138.963169,0.000008
1139.445371,0.000041
1139.927574,-0.000007
1140.409777,-0.000016
1140.891980,-0.000008
1141.374183,-0.000035
1141.856386,-0.000004
1142.338589,0.000056
1142.820791,0.000045
1143.302994,0.000021
1143.785197,0.000034
1144.267400,0.000014
1144.749603,0.000005
1145.231806,0.000044
1145.714009,0.000019
1146.196212,-0.000033
1146.678414,-0.000057
1147.160617,-0.000109
1147.642820,-0.000086
1148.125023,0.000078
1148.607226,0.000141
1149.089429,0.000045
1149.571632,0.000017
1150.053834,0.000027
1150.536037,-0.000017
1151.018240,-0.000028
1151.500443,-0.000030
1151.982646,-0.000061
1152.464849,-0.000083
1152.947052,-0.000097
1153.429255,-0.000157
1153.911457,-0.000210
1154.393660,-0.000107
1154.875863,0.000021
1155.358066,-0.000011
1155.840269,-0.000090
1156.322472,-0.000088
1156.804675,0.000001
1157.286877,0.000090
1157.769080,0.000118
1158.251283,0.000119
1158.733486,0.000085
1159.215689,-0.000010
1159.697892,-0.000143
1160.180095,-0.000220
1160.662298,-0.000192
1161.144500,-0.000153
1161.626703,-0.000149
1162.108906,-0.000079
1162.591109,0.000005
1163.073312,-0.000051
1163.555515,-0.000109
1164.037718,-0.000119
1164.519920,-0.000184
1165.002123,-0.000118
1165.484326,0.000012
1165.966529,-0.000032
1166.448732,-0.000086
1166.930935,-0.000090
1167.413138,-0.000070
1167.895340,0.000040
1168.377543,0.000080
1168.859746,0.000030
1169.341949,-0.000013
1169.824152,-0.000086
1170.306355,-0.000127
1170.788558,-0.000068
1171.270761,0.000034
1171.752963,0.000059
1172.235166,0.000026
1172.717369,0.000052
1173.199572,0.000006
1173.681775,-0.000138
1174.163978,-0.000191
1174.646181,-0.000120
1175.128383,-0.000128
1175.610586,-0.000347
1176.092789,-0.000423
1176.574992,-0.000240
1177.057195,-0.000149
1177.539398,-0.000108
1178.021601,-0.000055
1178.503804,-0.000098
1178.986006,-0.000069
1179.468209,0.000020
1179.950412,0.000027
1180.432615,0.000039
1180.914818,0.000044
1181.397021,-0.000036
1181.879224,-0.000119
1182.361426,-0.000131
1182.843629,-0.000093
1183.325832,-0.000057
1183.808035,-0.000036
1184.290238,-0.000061
1184.772441,-0.000118
1185.254644,-0.000095
1185.736847,-0.000045
1186.219049,-0.000068
1186.701252,-0.000129
1187.183455,-0.000179
1187.665658,-0.000154
1188.147861,-0.000055
1188.630064,-0.000036
1189.112267,-0.000159
1189.594469,-0.000248
1190.076672,-0.000181
1190.558875,-0.000041
1191.041078,0.000059
1191.523281,0.000036
1192.005484,-0.000067
1192.487687,-0.000159
1192.969889,-0.000171
1193.452092,-0.000108
1193.934295,-0.000090
1194.416498,-0.000013
1194.898701,0.000139
1195.380904,0.000096
1195.863107,-0.000062
1196.345310,-0.000095
1196.827512,-0.000076
1197.309715,-0.000054
1197.791918,0.000036
1198.274121,0.000046
1198.756324,-0.000067
1199.238527,-0.000090
1199.720730,-0.000101
1200.202932,-0.000181
1200.685135,-0.000242
1201.167338,-0.000335
1201.649541,-0.000340
1202.131744,-0.000215
1202.613947,-0.000130
1203.096150,-0.000083
1203.578353,-0.000118
1204.060555,-0.000175
1204.542758,-0.000109
1205.024961,-0.000078
1205.507164,-0.000134
1205.989367,-0.000158
1206.471570,-0.000134
1206.953773,-0.000082
1207.435975,-0.000092
1207.918178,-0.000130
1208.400381,-0.000105
1208.882584,-0.000080
1209.364787,-0.000109
1209.846990,-0.000216
1210.329193,-0.000282
1210.811396,-0.000174
1211.293598,-0.000021
1211.775801,0.000016
1212.258004,-0.000029
1212.740207,0.000009
1213.222410,0.000072
1213.704613,-0.000002
1214.186816,-0.000055
1214.669018,-0.000001
1215.151221,0.000013
1215.633424,0.000006
1216.115627,0.000097
1216.597830,0.000260
1217.080033,0.000386
1217.562236,0.000435
1218.044439,0.000402
1218.526641,0.000312
1219.008844,0.000299
1219.491047,0.000398
1219.973250,0.000473
1220.455453,0.000507
1220.937656,0.000545
1221.419859,0.000620
1221.902061,0.000770
1222.384264,0.000963
1222.866467,0.001166
1223.348670,0.001190
1223.830873,0.000981
1224.313076,0.000879
1224.795279,0.000981
1225.277481,0.001131
1225.759684,0.001256
1226.241887,0.001345
1226.724090,0.001478
1227.206293,0.001672
1227.688496,0.001914
1228.170699,0.002115
1228.652902,0.002123
1229.135104,0.002073
1229.617307,0.002113
1230.099510,0.002190
1230.581713,0.002372
1231.063916,0.002643
1231.546119,0.002801
1232.028322,0.002930
1232.510524,0.003200
1232.992727,0.003571
1233.474930,0.003961
1233.957133,0.004158
1234.439336,0.004176
1234.921539,0.004312
1235.403742,0.004504
1235.885945,0.004714
1236.368147,0.005051
1236.850350,0.005368
1237.332553,0.005645
1237.814756,0.005993
1238.296959,0.006506
1238.779162,0.007092
1239.261365,0.007335
1239.743567,0.007336
1240.225770,0.007555
1240.707973,0.007881
1241.190176,0.008199
1241.672379,0.008608
1242.154582,0.009014
1242.636785,0.009417
1243.118988,0.009892
1243.601190,0.010484
1244.083393,0.011224
1244.565596,0.011818
1245.047799,0.012083
1245.530002,0.012355
1246.012205,0.012844
1246.494408,0.013434
1246.976610,0.014017
1247.458813,0.014479
1247.941016,0.014878
1248.423219,0.015402
1248.905422,0.015989
1249.387625,0.016514
1249.869828,0.016974
1250.352031,0.017373
1250.834233,0.017761
1251.316436,0.018147
1251.798639,0.018404
1252.280842,0.018518
1252.763045,0.018633
1253.245248,0.018624
1253.727451,0.018289
1254.209653,0.017844
1254.691856,0.017435
1255.174059,0.016972
1255.656262,0.016511
1256.138465,0.015960
1256.620668,0.015286
1257.102871,0.014750
1257.585073,0.014485
1258.067276,0.014655
1258.549479,0.014870
1259.031682,0.014552
1259.513885,0.014288
1259.996088,0.014626
1260.478291,0.015342
1260.960494,0.015649
1261.442696,0.015399
1261.924899,0.015799
1262.407102,0.017697
1262.889305,0.022396
1263.371508,0.028105
1263.853711,0.028516
1264.335914,0.023936
1264.818116,0.019852
1265.300319,0.017136
1265.782522,0.015323
1266.264725,0.014666
1266.746928,0.014626
1267.229131,0.014843
1267.711334,0.015235
1268.193537,0.015776
1268.675739,0.016356
1269.157942,0.016890
1269.640145,0.017501
1270.122348,0.018149
1270.604551,0.018590
1271.086754,0.018788
1271.568957,0.018960
1272.051159,0.019091
1272.533362,0.019018
1273.015565,0.018805
1273.497768,0.018479
1273.979971,0.018022
1274.462174,0.017563
1274.944377,0.017127
1275.426580,0.016634
1275.908782,0.016174
1276.390985,0.015792
1276.873188,0.015307
1277.355391,0.014598
1277.837594,0.013851
1278.319797,0.013304
1278.802000,0.012912
1279.284202,0.012541
1279.766405,0.012139
1280.248608,0.011739
1280.730811,0.011467
1281.213014,0.011386
1281.695217,0.011285
1282.177420,0.010877
1282.659622,0.010198
1283.141825,0.009531
1283.624028,0.009026
1284.106231,0.008614
1284.588434,0.008278
1285.070637,0.008019
1285.552840,0.007669
1286.035043,0.007281
1286.517245,0.007043
1286.999448,0.006869
1287.481651,0.006600
1287.963854,0.006109
1288.446057,0.005526
1288.928260,0.005145
1289.410463,0.004866
1289.892665,0.004553
1290.374868,0.004314
1290.857071,0.004165
1291.339274,0.004013
1291.821477,0.003783
1292.303680,0.003562
1292.785883,0.003440
1293.268086,0.003228
1293.750288,0.002853
1294.232491,0.002499
1294.714694,0.002239
1295.196897,0.002064
1295.679100,0.001912
1296.161303,0.001793
1296.643506,0.001785
1297.125708,0.001727
1297.607911,0.001632
1298.090114,0.001635
1298.572317,0.001542
1299.054520,0.001352
1299.536723,0.001207
1300.018926,0.001075
1300.501129,0.001003
1300.983331,0.000986
1301.465534,0.000944
1301.947737,0.000873
1302.429940,0.000808
1302.912143,0.000753
1303.394346,0.000702
1303.876549,0.000678
1304.358751,0.000638
1304.840954,0.000563
1305.323157,0.000500
1305.805360,0.000454
1306.287563,0.000480
1306.769766,0.000535
1307.251969,0.000524
1307.734172,0.000513
1308.216374,0.000476
1308.698577,0.000440
1309.180780,0.000527
1309.662983,0.000565
1310.145186,0.000505
1310.627389,0.000500
1311.109592,0.000477
1311.591794,0.000464
1312.073997,0.000489
1312.556200,0.000438
1313.038403,0.000374
1313.520606,0.000331
1314.002809,0.000290
1314.485012,0.000273
1314.967214,0.000207
1315.449417,0.000176
1315.931620,0.000190
1316.413823,0.000078
1316.896026,-0.000039
1317.378229,-0.000001
1317.860432,0.000028
1318.342635,-0.000119
1318.824837,-0.000198
1319.307040,-0.000036
1319.789243,0.000047
1320.271446,-0.000040
1320.753649,-0.000077
1321.235852,0.000004
1321.718055,0.000030
1322.200257,-0.000082
1322.682460,-0.000104
1323.164663,-0.000052
1323.646866,-0.000080
1324.129069,-0.000044
1324.611272,0.000094
1325.093475,0.000244
1325.575678,0.000299
1326.057880,0.000169
1326.540083,0.000018
1327.022286,-0.000020
1327.504489,-0.000085
1327.986692,-0.000152
1328.468895,-0.000070
1328.951098,-0.000007
1329.433300,-0.000150
1329.915503,-0.000199
1330.397706,-0.000030
1330.879909,0.000005
1331.362112,-0.000035
1331.844315,-0.000003
1332.326518,0.000001
1332.808721,-0.000007
1333.290923,-0.000018
1333.773126,0.000092
1334.255329,0.000260
1334.737532,0.000261
1335.219735,0.000160
1335.701938,0.000148
1336.184141,0.000232
1336.666343,0.000147
1337.148546,0.000012
1337.630749,-0.000014
1338.112952,-0.000068
1338.595155,-0.000011
1339.077358,0.000070
1339.559561,0.000106
1340.041764,0.000132
1340.523966,-0.000019
1341.006169,-0.000056
1341.488372,0.000151
1341.970575,0.000253
1342.452778,0.000163
1342.934981,0.000026
1343.417184,-0.000005
1343.899386,0.000133
1344.381589,0.000240
1344.863792,0.000180
1345.345995,0.000053
1345.828198,-0.000094
1346.310401,-0.000065
1346.792604,0.000108
1347.274806,0.000108
1347.757009,0.000075
1348.239212,0.000032
1348.721415,-0.000096
1349.203618,-0.000069
1349.685821,-0.000008
1350.168024,-0.000111
1350.650227,-0.000223
1351.132429,-0.000214
1351.614632,-0.000158
1352.096835,-0.000155
1352.579038,-0.000185
1353.061241,-0.000244
1353.543444,-0.000297
1354.025647,-0.000243
1354.507849,-0.000108
1354.990052,-0.000063
1355.472255,-0.000076
1355.954458,-0.000018
1356.436661,0.000007
1356.918864,0.000014
1357.401067,0.000021
1357.883270,-0.000061
1358.365472,-0.000111
1358.847675,-0.000152
1359.329878,-0.000267
1359.812081,-0.000361
1360.294284,-0.000415
1360.776487,-0.000379
1361.258690,-0.000305
1361.740892,-0.000322
1362.223095,-0.000320
1362.705298,-0.000358
1363.187501,-0.000451
1363.669704,-0.000360
1364.151907,-0.000220
1364.634110,-0.000121
1365.116313,-0.000028
1365.598515,-0.000035
1366.080718,-0.000031
1366.562921,-0.000078
1367.045124,-0.000261
1367.527327,-0.000343
1368.009530,-0.000345
1368.491733,-0.000372
1368.973935,-0.000342
1369.456138,-0.000263
1369.938341,-0.000183
1370.420544,-0.000162
1370.902747,-0.000173
1371.384950,-0.000077
1371.867153,0.000030
1372.349355,0.000002
1372.831558,-0.000018
1373.313761,-0.000047
1373.795964,-0.000239
1374.278167,-0.000391
1374.760370,-0.000406
1375.242573,-0.000398
1375.724776,-0.000309
1376.206978,-0.000136
1376.689181,-0.000025
1377.171384,-0.000024
1377.653587,0.000028
1378.135790,0.000098
1378.617993,0.000085
1379.100196,0.000088
1379.582398,0.000053
1380.064601,0.000061
1380.546804,0.000232
1381.029007,0.000327
1381.511210,0.000249
1381.993413,0.000151
1382.475616,0.000174
1382.957819,0.000221
1383.440021,0.000156
1383.922224,0.000126
1384.404427,0.000162
1384.886630,0.000203
1385.368833,0.000246
1385.851036,0.000257
1386.333239,0.000320
1386.815441,0.000311
1387.297644,0.000074
1387.779847,-0.000002
1388.262050,0.000319
1388.744253,0.000562
1389.226456,0.000489
1389.708659,0.000413
1390.190862,0.000451
1390.673064,0.000399
1391.155267,0.000402
1391.637470,0.000560
1392.119673,0.000665
1392.601876,0.000641
1393.084079,0.000567
1393.566282,0.000551
1394.048484,0.000424
1394.530687,0.000153
1395.012890,0.000214
1395.495093,0.000368
1395.977296,0.000325
1396.459499,0.000380
1396.941702,0.000510
1397.423905,0.000503
1397.906107,0.000388
1398.388310,0.000309
1398.870513,0.000240
1399.352716,0.000268
1399.834919,0.000538
1400.317122,0.000646
1400.799325,0.000549
1401.281527,0.000544
1401.763730,0.000523
1402.245933,0.000478
1402.728136,0.000523
1403.210339,0.000566
1403.692542,0.000601
1404.174745,0.000601
1404.656947,0.000462
1405.139150,0.000302
1405.621353,0.000330
1406.103556,0.000461
1406.585759,0.000537
1407.067962,0.000551
1407.550165,0.000557
1408.032368,0.000546
1408.514570,0.000572
1408.996773,0.000656
1409.478976,0.000665
1409.961179,0.000636
1410.443382,0.000608
1410.925585,0.000489
1411.407788,0.000403
1411.889990,0.000422
1412.372193,0.000418
1412.854396,0.000397
1413.336599,0.000451
1413.818802,0.000504
1414.301005,0.000487
1414.783208,0.000521
1415.265411,0.000598
1415.747613,0.000590
1416.229816,0.000567
1416.712019,0.000591
1417.194222,0.000525
1417.676425,0.000391
1418.158628,0.000296
1418.640831,0.000110
1419.123033,-0.000217
1419.605236,-0.000313
1420.087439,0.000105
1420.569642,0.000418
1421.051845,0.000340
1421.534048,0.000266
1422.016251,0.000384
1422.498454,0.000556
1422.980656,0.000670
1423.462859,0.000500
1423.945062,0.000243
1424.427265,0.000241
1424.909468,0.000441
1425.391671,0.000565
1425.873874,0.000361
1426.356076,0.000281
1426.838279,0.000582
1427.320482,0.000644
1427.802685,0.000477
1428.284888,0.000496
1428.767091,0.000489
1429.249294,0.000288
1429.731497,0.000096
1430.213699,0.000131
1430.695902,0.000311
1431.178105,0.000368
1431.660308,0.000328
1432.142511,0.000343
1432.624714,0.000326
1433.106917,0.000241
1433.589119,0.000263
1434.071322,0.000367
1434.553525,0.000356
1435.035728,0.000199
1435.517931,0.000005
1436.000134,-0.000210
1436.482337,-0.000633
1436.964539,-0.000783
1437.446742,-0.000206
1437.928945,0.000159
1438.411148,0.000179
1438.893351,0.000219
1439.375554,0.000254
1439.857757,0.000212
1440.339960,0.000170
1440.822162,0.000228
1441.304365,0.000389
1441.786568,0.000480
1442.268771,0.000414
1442.750974,0.000255
1443.233177,0.000188
1443.715380,0.000256
1444.197582,0.000272
1444.679785,0.000230
1445.161988,0.000209
1445.644191,0.000178
1446.126394,0.000131
1446.608597,0.000056
1447.090800,-0.000008
1447.573003,-0.000035
1448.055205,-0.000064
1448.537408,0.000045
1449.019611,0.000215
1449.501814,0.000240
1449.984017,0.000284
1450.466220,0.000383
1450.948423,0.000375
1451.430625,0.000265
1451.912828,0.000068
1452.395031,0.000012
1452.877234,0.000124
1453.359437,0.000159
1453.841640,0.000188
1454.323843,0.000173
1454.806046,-0.000036
1455.288248,-0.000293
1455.770451,-0.000410
1456.252654,-0.000623
1456.734857,-0.001252
1457.217060,-0.001344
1457.699263,-0.000876
1458.181466,-0.000703
1458.663668,-0.000571
1459.145871,-0.000290
1459.628074,-0.000036
1460.110277,0.000102
1460.592480,0.000180
1461.074683,0.000297
1461.556886,0.000362
1462.039089,0.000351
1462.521291,0.000357
1463.003494,0.000325
1463.485697,0.000234
1463.967900,0.000126
1464.450103,-0.000197
1464.932306,-0.000678
1465.414509,-0.000518
1465.896711,0.000031
1466.378914,0.000250
1466.861117,0.000223
1467.343320,0.000162
1467.825523,0.000153
1468.307726,0.000216
1468.789929,0.000182
1469.272131,0.000098
1469.754334,0.000104
1470.236537,0.000091
1470.718740,-0.000057
1471.200943,-0.000273
1471.683146,-0.000595
1472.165349,-0.000953
1472.647552,-0.000830
1473.129754,-0.000671
1473.611957,-0.000767
1474.094160,-0.000460
1474.576363,-0.000020
1475.058566,0.000139
1475.540769,0.000063
1476.022972,-0.000304
1476.505174,-0.000478
1476.987377,-0.000143
1477.469580,0.000084
1477.951783,0.000111
1478.433986,0.000124
1478.916189,0.000136
1479.398392,0.000170
1479.880595,0.000220
1480.362797,0.000199
1480.845000,0.000029
1481.327203,-0.000062
1481.809406,0.000091
1482.291609,0.000209
1482.773812,0.000205
1483.256015,0.000210
1483.738217,0.000205
1484.220420,0.000125
1484.702623,0.000091
1485.184826,0.000147
1485.667029,0.000099
1486.149232,0.000040
1486.631435,-0.000021
1487.113638,-0.000348
1487.595840,-0.000476
1488.078043,-0.000152
1488.560246,-0.000013
1489.042449,-0.000117
1489.524652,-0.000282
1490.006855,-0.000438
1490.489058,-0.000447
1490.971260,-0.000380
1491.453463,-0.000188
1491.935666,0.000108
1492.417869,0.000317
1492.900072,0.000378
1493.382275,0.000297
1493.864478,0.000241
1494.346680,0.000297
1494.828883,0.000256
1495.311086,0.000156
1495.793289,-0.000052
1496.275492,-0.000445
1496.757695,-0.000250
1497.239898,0.000155
1497.722101,0.000150
1498.204303,0.000050
1498.686506,-0.000062
1499.168709,-0.000032
1499.650912,0.000311
1500.133115,0.000479
1500.615318,0.000453
1501.097521,0.000456
1501.579723,0.000390
1502.061926,0.000358
1502.544129,0.000470
1503.026332,0.000554
1503.508535,0.000528
1503.990738,0.000440
1504.472941,0.000363
1504.955144,0.000108
1505.437346,-0.000649
1505.919549,-0.001112
1506.401752,-0.000837
1506.883955,-0.001009
1507.366158,-0.001071
1507.848361,-0.000455
1508.330564,-0.000126
1508.812766,0.000014
1509.294969,0.000256
1509.777172,0.000344
1510.259375,0.000362
1510.741578,0.000501
1511.223781,0.000638
1511.705984,0.000653
1512.188187,0.000433
1512.670389,0.000318
1513.152592,0.000527
1513.634795,0.000650
1514.116998,0.000664
1514.599201,0.000624
1515.081404,0.000479
1515.563607,0.000452
1516.045809,0.000390
1516.528012,0.000033
1517.010215,-0.000271
1517.492418,-0.000256
1517.974621,0.000049
1518.456824,0.000482
1518.939027,0.000719
1519.421230,0.000637
1519.903432,0.000274
1520.385635,-0.000023
1520.867838,-0.000068
1521.350041,-0.000268
1521.832244,-0.000119
1522.314447,0.000153
1522.796650,0.000117
1523.278852,0.000419
1523.761055,0.000780
1524.243258,0.000736
1524.725461,0.000606
1525.207664,0.000439
1525.689867,0.000328
1526.172070,0.000633
1526.654272,0.000898
1527.136475,0.000815
1527.618678,0.000743
1528.100881,0.000802
1528.583084,0.000777
1529.065287,0.000838
1529.547490,0.001020
1530.029693,0.001090
1530.511895,0.001093
1530.994098,0.001097
1531.476301,0.000998
1531.958504,0.000914
1532.440707,0.000859
1532.922910,0.000600
1533.405113,0.000263
1533.887315,0.000256
1534.369518,0.000676
1534.851721,0.001110
1535.333924,0.001250
1535.816127,0.001202
1536.298330,0.001188
1536.780533,0.001230
1537.262736,0.001253
1537.744938,0.001105
1538.227141,0.000790
1538.709344,0.000323
1539.191547,-0.000183
1539.673750,-0.000124
1540.155953,0.000048
1540.638156,0.000216
1541.120358,0.000661
1541.602561,0.000731
1542.084764,0.000218
1542.566967,0.000385
1543.049170,0.001078
1543.531373,0.001383
1544.013576,0.001496
1544.495779,0.001524
1544.977981,0.001297
1545.460184,0.001333
1545.942387,0.001844
1546.424590,0.002207
1546.906793,0.002352
1547.388996,0.002476
1547.871199,0.002565
1548.353401,0.002640
1548.835604,0.002674
1549.317807,0.002594
1549.800010,0.002538
1550.282213,0.002668
1550.764416,0.002980
1551.246619,0.003280
1551.728822,0.003454
1552.211024,0.003569
1552.693227,0.003675
1553.175430,0.003789
1553.657633,0.003814
1554.139836,0.003607
1554.622039,0.003676
1555.104242,0.004450
1555.586444,0.005057
1556.068647,0.005229
1556.550850,0.005379
1557.033053,0.005345
1557.515256,0.004983
1557.997459,0.005067
1558.479662,0.005557
1558.961864,0.005962
1559.444067,0.006422
1559.926270,0.006862
1560.408473,0.007674
1560.890676,0.008902
1561.372879,0.009981
1561.855082,0.010868
1562.337285,0.011528
1562.819487,0.012134
1563.301690,0.012913
1563.783893,0.013757
1564.266096,0.014580
1564.748299,0.015440
1565.230502,0.016447
1565.712705,0.017575
1566.194907,0.018737
1566.677110,0.019959
1567.159313,0.021153
1567.641516,0.022245
1568.123719,0.023354
1568.605922,0.024672
1569.088125,0.026167
1569.570328,0.027639
1570.052530,0.029249
1570.534733,0.031399
1571.016936,0.034034
1571.499139,0.036549
1571.981342,0.038264
1572.463545,0.039797
1572.945748,0.042281
1573.427950,0.045340
1573.910153,0.047892
1574.392356,0.049924
1574.874559,0.052228
1575.356762,0.055398
1575.838965,0.058743
1576.321168,0.061662
1576.803371,0.065387
1577.285573,0.069785
1577.767776,0.074175
1578.249979,0.077925
1578.732182,0.080944
1579.214385,0.084652
1579.696588,0.089947
1580.178791,0.095273
1580.660993,0.099201
1581.143196,0.103324
1581.625399,0.109437
1582.107602,0.115821
1582.589805,0.119787
1583.072008,0.122438
1583.554211,0.127276
1584.036413,0.134990
1584.518616,0.142283
1585.000819,0.146435
1585.483022,0.150159
1585.965225,0.158274
1586.447428,0.168605
1586.929631,0.173687
1587.411834,0.174282
1587.894036,0.178885
1588.376239,0.189427
1588.858442,0.198395
1589.340645,0.201264
1589.822848,0.205391
1590.305051,0.218463
1590.787254,0.232362
1591.269456,0.233034
1591.751659,0.229096
1592.233862,0.239186
1592.716065,0.254130
1593.198268,0.254098
1593.680471,0.250617
1594.162674,0.263532
1594.644877,0.282517
1595.127079,0.282584
1595.609282,0.270768
1596.091485,0.274428
1596.573688,0.288947
1597.055891,0.285289
1597.538094,0.273626
1598.020297,0.284519
1598.502499,0.307590
1598.984702,0.307767
1599.466905,0.288973
1599.949108,0.285547
1600.431311,0.296071
1600.913514,0.289475
1601.395717,0.277057
1601.877920,0.291854
1602.360122,0.314124
1602.842325,0.299418
1603.324528,0.269140
1603.806731,0.268547
1604.288934,0.281373
1604.771137,0.273780
1605.253340,0.272976
1605.735542,0.298905
1606.217745,0.294540
1606.699948,0.248691
1607.182151,0.230378
1607.664354,0.248506
1608.146557,0.273385
1608.628760,0.279597
1609.110963,0.249915
1609.593165,0.221568
1610.075368,0.215685
1610.557571,0.226312
1611.039774,0.248726
1611.521977,0.234075
1612.004180,0.187884
1612.486383,0.181386
1612.968585,0.212666
1613.450788,0.205570
1613.932991,0.167332
1614.415194,0.171973
1614.897397,0.187035
1615.379600,0.166949
1615.861803,0.152560
1616.344005,0.140847
1616.826208,0.116699
1617.308411,0.114533
1617.790614,0.128074
1618.272817,0.147136
1618.755020,0.172424
1619.237223,0.202141
1619.719426,0.225017
1620.201628,0.238093
1620.683831,0.262753
1621.166034,0.289516
1621.648237,0.295901
1622.130440,0.304589
1622.612643,0.332580
1623.094846,0.350787
1623.577048,0.354678
1624.059251,0.375468
1624.541454,0.383946
1625.023657,0.366782
1625.505860,0.377169
1625.988063,0.405571
1626.470266,0.389941
1626.952469,0.385207
1627.434671,0.418566
1627.916874,0.405674
1628.399077,0.388044
1628.881280,0.417784
1629.363483,0.408829
1629.845686,0.381402
1630.327889,0.402601
1630.810091,0.397752
1631.292294,0.365100
1631.774497,0.378076
1632.256700,0.371736
1632.738903,0.338339
1633.221106,0.347875
1633.703309,0.339835
1634.185512,0.305767
1634.667714,0.310451
1635.149917,0.300944
1635.632120,0.274906
1636.114323,0.284239
1636.596526,0.258380
1637.078729,0.233309
1637.560932,0.235462
1638.043134,0.215684
1638.525337,0.207587
1639.007540,0.212507
1639.489743,0.192321
1639.971946,0.187701
1640.454149,0.180900
1640.936352,0.155390
1641.418555,0.150308
1641.900757,0.137836
1642.382960,0.122703
1642.865163,0.120845
1643.347366,0.106377
1643.829569,0.098955
1644.311772,0.094670
1644.793975,0.082338
1645.276177,0.080971
1645.758380,0.076079
1646.240583,0.065626
1646.722786,0.058347
1647.204989,0.049076
1647.687192,0.045618
1648.169395,0.042290
1648.651597,0.038032
1649.133800,0.035107
1649.616003,0.030765
1650.098206,0.028467
1650.580409,0.025699
1651.062612,0.022871
1651.544815,0.021079
1652.027018,0.017634
1652.509220,0.014484
1652.991423,0.011725
1653.473626,0.009926
1653.955829,0.010078
1654.438032,0.010077
1654.920235,0.009890
1655.402438,0.009755
1655.884640,0.009548
1656.366843,0.008993
1656.849046,0.008482
1657.331249,0.008134
1657.813452,0.007928
1658.295655,0.007751
1658.777858,0.007345
1659.260061,0.007084
1659.742263,0.006873
1660.224466,0.006621
1660.706669,0.006424
1661.188872,0.006175
1661.671075,0.005901
1662.153278,0.005634
1662.635481,0.005161
1663.117683,0.004771
1663.599886,0.005122
1664.082089,0.005434
1664.564292,0.005371
1665.046495,0.005375
1665.528698,0.005336
1666.010901,0.005234
1666.493104,0.005235
1666.975306,0.005278
1667.457509,0.005318
1667.939712,0.005272
1668.421915,0.005088
1668.904118,0.004789
1669.386321,0.004490
1669.868524,0.004686
1670.350726,0.005188
1670.832929,0.005399
1671.315132,0.005318
1671.797335,0.005409
1672.279538,0.005788
1672.761741,0.006109
1673.243944,0.006303
1673.726146,0.006410
1674.208349,0.006497
1674.690552,0.006455
1675.172755,0.006007
1675.654958,0.006043
1676.137161,0.006947
1676.619364,0.007655
1677.101567,0.008007
1677.583769,0.008220
1678.065972,0.008409
1678.548175,0.008636
1679.030378,0.008877
1679.512581,0.009043
1679.994784,0.009198
1680.476987,0.009452
1680.959189,0.009728
1681.441392,0.009881
1681.923595,0.009949
1682.405798,0.010017
1682.888001,0.009884
1683.370204,0.009525
1683.852407,0.009386
1684.334610,0.009506
1684.816812,0.009404
1685.299015,0.009253
1685.781218,0.009630
1686.263421,0.010060
1686.745624,0.010144
1687.227827,0.010086
1687.710030,0.009977
1688.192232,0.009616
1688.674435,0.009233
1689.156638,0.009099
1689.638841,0.008932
1690.121044,0.008588
1690.603247,0.008371
1691.085450,0.008284
1691.567653,0.008034
1692.049855,0.007631
1692.532058,0.007166
1693.014261,0.006651
1693.496464,0.006146
1693.978667,0.005653
1694.460870,0.005196
1694.943073,0.004818
1695.425275,0.004499
1695.907478,0.004273
1696.389681,0.004985
1696.871884,0.006663
1697.354087,0.009013
1697.836290,0.012264
1698.318493,0.015964
1698.800696,0.019320
1699.282898,0.020308
1699.765101,0.015510
1700.247304,0.006234
1700.729507,0.002223
1701.211710,0.002921
1701.693913,0.003900
1702.176116,0.004338
1702.658318,0.004087
1703.140521,0.003957
1703.622724,0.004239
1704.104927,0.004528
1704.587130,0.004855
1705.069333,0.005577
1705.551536,0.006476
1706.033738,0.007081
1706.515941,0.007559
1706.998144,0.008312
1707.480347,0.009126
1707.962550,0.009723
1708.444753,0.010213
1708.926956,0.010702
1709.409159,0.011099
1709.891361,0.011453
1710.373564,0.011886
1710.855767,0.012346
1711.337970,0.012669
1711.820173,0.012852
1712.302376,0.012919
1712.784579,0.012897
1713.266781,0.012936
1713.748984,0.012917
1714.231187,0.012738
1714.713390,0.012473
1715.195593,0.012170
1715.677796,0.012188
1716.159999,0.012371
1716.642202,0.012277
1717.124404,0.011816
1717.606607,0.011250
1718.088810,0.011172
1718.571013,0.011012
1719.053216,0.010819
1719.535419,0.011131
1720.017622,0.011265
1720.499824,0.011044
1720.982027,0.010869
1721.464230,0.010698
1721.946433,0.010434
1722.428636,0.010173
1722.910839,0.009970
1723.393042,0.009677
1723.875245,0.009354
1724.357447,0.009255
1724.839650,0.009212
1725.321853,0.009039
1725.804056,0.008826
1726.286259,0.008668
1726.768462,0.008557
1727.250665,0.008442
1727.732867,0.008365
1728.215070,0.008334
1728.697273,0.008274
1729.179476,0.008188
1729.661679,0.007978
1730.143882,0.007767
1730.626085,0.007904
1731.108288,0.008223
1731.590490,0.008382
1732.072693,0.008335
1732.554896,0.008309
1733.037099,0.008253
1733.519302,0.008081
1734.001505,0.008111
1734.483708,0.008038
1734.965910,0.008268
1735.448113,0.009169
1735.930316,0.009830
1736.412519,0.010177
1736.894722,0.010425
1737.376925,0.010604
1737.859128,0.010810
1738.341330,0.010985
1738.823533,0.011142
1739.305736,0.011211
1739.787939,0.011002
1740.270142,0.011111
1740.752345,0.011670
1741.234548,0.012036
1741.716751,0.012195
1742.198953,0.012237
1742.681156,0.012132
1743.163359,0.012020
1743.645562,0.012030
1744.127765,0.012132
1744.609968,0.012161
1745.092171,0.012091
1745.574373,0.012004
1746.056576,0.011920
1746.538779,0.011780
1747.020982,0.011557
1747.503185,0.011405
1747.985388,0.011245
1748.467591,0.010980
1748.949794,0.010899
1749.431996,0.011018
1749.914199,0.011143
1750.396402,0.011176
1750.878605,0.010961
1751.360808,0.010697
1751.843011,0.010810
1752.325214,0.011069
1752.807416,0.011275
1753.289619,0.011476
1753.771822,0.011533
1754.254025,0.011535
1754.736228,0.011632
1755.218431,0.011597
1755.700634,0.011436
1756.182837,0.011277
1756.665039,0.010999
1757.147242,0.010844
1757.629445,0.011004
1758.111648,0.011036
1758.593851,0.010829
1759.076054,0.010662
1759.558257,0.010470
1760.040459,0.010095
1760.522662,0.009626
1761.004865,0.009080
1761.487068,0.008279
1761.969271,0.007389
1762.451474,0.007055
1762.933677,0.006999
1763.415880,0.006717
1763.898082,0.006279
1764.380285,0.005789
1764.862488,0.005339
1765.344691,0.004965
1765.826894,0.004558
1766.309097,0.004135
1766.791300,0.003725
1767.273502,0.003349
1767.755705,0.002904
1768.237908,0.002279
1768.720111,0.001960
1769.202314,0.002008
1769.684517,0.001854
1770.166720,0.001486
1770.648922,0.001207
1771.131125,0.000839
1771.613328,0.000424
1772.095531,0.000301
1772.577734,0.000040
1773.059937,-0.000271
1773.542140,0.000002
1774.024343,0.000311
1774.506545,0.000333
1774.988748,0.000202
1775.470951,0.000090
1775.953154,0.000123
1776.435357,0.000159
1776.917560,0.000160
1777.399763,0.000236
1777.881965,0.000256
1778.364168,0.000206
1778.846371,0.000179
1779.328574,0.000143
1779.810777,0.000221
1780.292980,0.000326
1780.775183,0.000188
1781.257386,0.000172
1781.739588,0.000472
1782.221791,0.000626
1782.703994,0.000669
1783.186197,0.000815
1783.668400,0.000956
1784.150603,0.001225
1784.632806,0.001419
1785.115008,0.001238
1785.597211,0.001256
1786.079414,0.001584
1786.561617,0.001697
1787.043820,0.001674
1787.526023,0.001788
1788.008226,0.002056
1788.490429,0.002348
1788.972631,0.002307
1789.454834,0.002014
1789.937037,0.001964
1790.419240,0.001962
1790.901443,0.001618
1791.383646,0.001305
1791.865849,0.001281
1792.348051,0.001153
1792.830254,0.000817
1793.312457,0.000774
1793.794660,0.001131
1794.276863,0.001436
1794.759066,0.001293
1795.241269,0.000975
1795.723471,0.000897
1796.205674,0.001171
1796.687877,0.001609
1797.170080,0.001518
1797.652283,0.001118
1798.134486,0.001363
1798.616689,0.001770
1799.098892,0.001536
1799.581094,0.000895
1800.063297,0.000587
1800.545500,0.001046
1801.027703,0.001207
1801.509906,0.000569
1801.992109,0.000532
1802.474312,0.001191
1802.956514,0.001440
1803.438717,0.001328
1803.920920,0.001501
1804.403123,0.002350
1804.885326,0.003010
1805.367529,0.002469
1805.849732,0.001919
1806.331935,0.002379
1806.814137,0.002804
1807.296340,0.002453
1807.778543,0.002066
1808.260746,0.002784
1808.742949,0.003843
1809.225152,0.003286
1809.707355,0.002045
1810.189557,0.002094
1810.671760,0.002671
1811.153963,0.002583
1811.636166,0.002205
1812.118369,0.002816
1812.600572,0.004195
1813.082775,0.003862
1813.564978,0.002222
1814.047180,0.001957
1814.529383,0.002912
1815.011586,0.003202
1815.493789,0.002442
1815.975992,0.002707
1816.458195,0.004433
1816.940398,0.004318
1817.422600,0.002259
1817.904803,0.001639
1818.387006,0.002784
1818.869209,0.003509
1819.351412,0.002730
1819.833615,0.002784
1820.315818,0.004817
1820.798021,0.004756
1821.280223,0.002265
1821.762426,0.001397
1822.244629,0.002591
1822.726832,0.003794
1823.209035,0.003212
1823.691238,0.003102
1824.173441,0.005420
1824.655643,0.005339
1825.137846,0.002141
1825.620049,0.000940
1826.102252,0.002490
1826.584455,0.004250
1827.066658,0.003884
1827.548861,0.003940
1828.031063,0.006503
1828.513266,0.005807
1828.995469,0.002167
1829.477672,0.001131
1829.959875,0.002587
1830.442078,0.004441
1830.924281,0.004245
1831.406484,0.005008
1831.888686,0.007652
1832.370889,0.005808
1832.853092,0.002034
1833.335295,0.001688
1833.817498,0.003726
1834.299701,0.005946
1834.781904,0.005831
1835.264106,0.006962
1835.746309,0.008858
1836.228512,0.005443
1836.710715,0.001888
1837.192918,0.002173
1837.675121,0.004635
1838.157324,0.007031
1838.639527,0.007112
1839.121729,0.008798
1839.603932,0.009033
1840.086135,0.004259
1840.568338,0.001805
1841.050541,0.002907
1841.532744,0.005743
1842.014947,0.008009
1842.497149,0.008735
1842.979352,0.010594
1843.461555,0.008262
1843.943758,0.002737
1844.425961,0.001422
1844.908164,0.003493
1845.390367,0.006804
1845.872570,0.008974
1846.354772,0.010576
1846.836975,0.010669
1847.319178,0.005562
1847.801381,0.001782
1848.283584,0.002321
1848.765787,0.004822
1849.247990,0.008295
1849.730192,0.010541
1850.212395,0.011622
1850.694598,0.008348
1851.176801,0.002911
1851.659004,0.001772
1852.141207,0.003252
1852.623410,0.006231
1853.105613,0.009773
1853.587815,0.011939
1854.070018,0.010306
1854.552221,0.004661
1855.034424,0.001556
1855.516627,0.002170
1855.998830,0.004159
1856.481033,0.007758
1856.963235,0.011208
1857.445438,0.011065
1857.927641,0.006067
1858.409844,0.001791
1858.892047,0.001635
1859.374250,0.002923
1859.856453,0.005531
1860.338655,0.009460
1860.820858,0.010781
1861.303061,0.006793
1861.785264,0.002080
1862.267467,0.001113
1862.749670,0.001895
1863.231873,0.003446
1863.714076,0.006849
1864.196278,0.009214
1864.678481,0.006578
1865.160684,0.002076
1865.642887,0.000598
1866.125090,0.001001
1866.607293,0.001744
1867.089496,0.003934
1867.571698,0.006278
1868.053901,0.004966
1868.536104,0.001353
1869.018307,-0.000166
1869.500510,-0.000204
1869.982713,-0.000007
1870.464916,0.000973
1870.947119,0.002500
1871.429321,0.002630
1871.911524,0.001101
1872.393727,0.000321
1872.875930,0.000518
1873.358133,0.000851
1873.840336,0.001572
1874.322539,0.002793
1874.804741,0.004612
1875.286944,0.007834
1875.769147,0.010839
1876.251350,0.008524
1876.733553,0.002900
1877.215756,0.000349
1877.697959,0.000030
1878.180162,-0.000169
1878.662364,-0.000163
1879.144567,-0.000163
1879.626770,0.000083
1880.108973,0.000465
1880.591176,0.001498
1881.073379,0.002780
1881.555582,0.002252
1882.037784,0.000652
1882.519987,0.000415
1883.002190,0.001076
1883.484393,0.002079
1883.966596,0.005147
1884.448799,0.007602
1884.931002,0.005019
1885.413204,0.001350
1885.895407,0.001203
1886.377610,0.002164
1886.859813,0.004059
1887.342016,0.009011
1887.824219,0.011054
1888.306422,0.006026
1888.788625,0.001781
1889.270827,0.002170
1889.753030,0.003310
1890.235233,0.007071
1890.717436,0.013231
1891.199639,0.012548
1891.681842,0.005231
1892.164045,0.002033
1892.646247,0.003261
1893.128450,0.005326
1893.610653,0.011309
1894.092856,0.016332
1894.575059,0.011453
1895.057262,0.003973
1895.539465,0.002899
1896.021668,0.004551
1896.503870,0.008532
1896.986073,0.015808
1897.468276,0.016292
1897.950479,0.008137
1898.432682,0.003270
1898.914885,0.003980
1899.397088,0.006623
1899.879290,0.013152
1900.361493,0.017902
1900.843696,0.012610
1901.325899,0.005162
1901.808102,0.003684
1902.290305,0.005429
1902.772508,0.010370
1903.254711,0.016841
1903.736913,0.015443
1904.219116,0.007700
1904.701319,0.003839
1905.183522,0.004575
1905.665725,0.008503
1906.147928,0.015077
1906.630131,0.016285
1907.112333,0.009861
1907.594536,0.004654
1908.076739,0.004059
1908.558942,0.007053
1909.041145,0.013081
1909.523348,0.015627
1910.005551,0.010892
1910.487754,0.005518
1910.969956,0.003932
1911.452159,0.006043
1911.934362,0.011312
1912.416565,0.014178
1912.898768,0.010822
1913.380971,0.006045
1913.863174,0.003861
1914.345376,0.005248
1914.827579,0.009998
1915.309782,0.012619
1915.791985,0.009886
1916.274188,0.005903
1916.756391,0.003525
1917.238594,0.004295
1917.720796,0.008198
1918.202999,0.010096
1918.685202,0.007947
1919.167405,0.005358
1919.649608,0.003515
1920.131811,0.004391
1920.614014,0.008045
1921.096217,0.009148
1921.578419,0.006928
1922.060622,0.004774
1922.542825,0.003228
1923.025028,0.004244
1923.507231,0.007360
1923.989434,0.007502
1924.471637,0.005505
1924.953839,0.004011
1925.436042,0.002907
1925.918245,0.004203
1926.400448,0.006414
1926.882651,0.005705
1927.364854,0.004185
1927.847057,0.003236
1928.329260,0.002641
1928.811462,0.004129
1929.293665,0.005228
1929.775868,0.004050
1930.258071,0.003125
1930.740274,0.002380
1931.222477,0.002372
1931.704680,0.003863
1932.186882,0.003855
1932.669085,0.002745
1933.151288,0.002287
1933.633491,0.001747
1934.115694,0.002333
1934.597897,0.003177
1935.080100,0.002425
1935.562303,0.001860
1936.044505,0.001536
1936.526708,0.001409
1937.008911,0.002295
1937.491114,0.002294
1937.973317,0.001611
1938.455520,0.001406
1938.937723,0.001110
1939.419925,0.001452
1939.902128,0.001779
1940.384331,0.001218
1940.866534,0.000972
1941.348737,0.000852
1941.830940,0.000826
1942.313143,0.001087
1942.795346,0.000745
1943.277548,0.000520
1943.759751,0.000661
1944.241954,0.000638
1944.724157,0.000810
1945.206360,0.000722
1945.688563,0.000457
1946.170766,0.000435
1946.652968,0.000352
1947.135171,0.000459
1947.617374,0.000473
1948.099577,0.000288
1948.581780,0.000314
1949.063983,0.000296
1949.546186,0.000348
1950.028388,0.000375
1950.510591,0.000180
1950.992794,0.000117
1951.474997,0.000138
1951.957200,0.000179
1952.439403,0.000184
1952.921606,0.000126
1953.403809,0.000122
1953.886011,0.000092
1954.368214,0.000103
1954.850417,0.000071
1955.332620,-0.000022
1955.814823,0.000014
1956.297026,0.000004
1956.779229,-0.000060
1957.261431,-0.000024
1957.743634,0.000058
1958.225837,0.000092
1958.708040,0.000052
1959.190243,0.000040
1959.672446,0.000037
1960.154649,-0.000022
1960.636852,-0.000040
1961.119054,-0.000030
1961.601257,-0.000091
1962.083460,-0.000145
1962.565663,-0.000128
1963.047866,-0.000087
1963.530069,-0.000007
1964.012272,0.000053
1964.494474,0.000028
1964.976677,0.000020
1965.458880,0.000021
1965.941083,-0.000029
1966.423286,-0.000058
1966.905489,-0.000100
1967.387692,-0.000187
1967.869895,-0.000172
1968.352097,-0.000072
1968.834300,-0.000017
1969.316503,-0.000015
1969.798706,-0.000020
1970.280909,0.000007
1970.763112,-0.000020
1971.245315,-0.000098
1971.727517,-0.000095
1972.209720,-0.000078
1972.691923,-0.000099
1973.174126,-0.000160
1973.656329,-0.000225
1974.138532,-0.000182
1974.620735,-0.000130
1975.102938,-0.000113
1975.585140,-0.000023
1976.067343,0.000039
1976.549546,-0.000001
1977.031749,-0.000052
1977.513952,-0.000064
1977.996155,-0.000046
1978.478358,-0.000001
1978.960560,0.000009
1979.442763,-0.000018
1979.924966,0.000013
1980.407169,0.000025
1980.889372,-0.000018
1981.371575,-0.000010
1981.853778,0.000034
1982.335980,0.000075
1982.818183,0.000097
1983.300386,0.000073
1983.782589,0.000028
1984.264792,-0.000009
1984.746995,-0.000048
1985.229198,-0.000095
1985.711401,-0.000104
1986.193603,-0.000055
1986.675806,-0.000023
1987.158009,-0.000004
1987.640212,0.000051
1988.122415,0.000014
1988.604618,-0.000088
1989.086821,-0.000047
1989.569023,0.000003
1990.051226,-0.000053
1990.533429,-0.000095
1991.015632,-0.000097
1991.497835,-0.000101
1991.980038,-0.000155
1992.462241,-0.000198
1992.944444,-0.000173
1993.426646,-0.000139
1993.908849,-0.000110
1994.391052,-0.000116
1994.873255,-0.000136
1995.355458,-0.000118
1995.837661,-0.000073
1996.319864,-0.000033
1996.802066,-0.000083
1997.284269,-0.000145
1997.766472,-0.000107
1998.248675,-0.000047
1998.730878,0.000006
1999.213081,-0.000004
1999.695284,-0.000074
2000.177487,-0.000086
2000.659689,-0.000083
2001.141892,-0.000066
2001.624095,-0.000005
2002.106298,0.000026
2002.588501,0.000002
2003.070704,-0.000052
2003.552907,-0.000075
2004.035109,-0.000049
2004.517312,-0.000060
2004.999515,-0.000084
2005.481718,-0.000038
2005.963921,-0.000016
2006.446124,-0.000064
2006.928327,-0.000087
2007.410529,-0.000086
2007.892732,-0.000072
2008.374935,-0.000064
2008.857138,-0.000067
2009.339341,-0.000058
2009.821544,-0.000067
2010.303747,-0.000038
2010.785950,-0.000013
2011.268152,-0.000059
2011.750355,-0.000058
2012.232558,-0.000028
2012.714761,-0.000002
2013.196964,0.000050
2013.679167,0.000010
2014.161370,-0.000064
2014.643572,-0.000014
2015.125775,0.000047
2015.607978,-0.000011
2016.090181,-0.000135
2016.572384,-0.000237
2017.054587,-0.000232
2017.536790,-0.000109
2018.018993,-0.000025
2018.501195,-0.000065
2018.983398,-0.000068
2019.465601,0.000003
2019.947804,-0.000040
2020.430007,-0.000098
2020.912210,-0.000022
2021.394413,0.000020
2021.876615,-0.000031
2022.358818,-0.000029
2022.841021,0.000066
2023.323224,0.000122
2023.805427,0.000065
2024.287630,0.000014
2024.769833,0.000003
2025.252036,-0.000007
2025.734238,0.000070
2026.216441,0.000169
2026.698644,0.000101
2027.180847,-0.000011
2027.663050,-0.000017
2028.145253,-0.000044
2028.627456,-0.000088
2029.109658,-0.000079
2029.591861,-0.000108
2030.074064,-0.000179
2030.556267,-0.000205
2031.038470,-0.000131
2031.520673,-0.000029
2032.002876,0.000008
2032.485079,0.000045
2032.967281,0.000034
2033.449484,-0.000061
2033.931687,-0.000072
2034.413890,-0.000026
2034.896093,-0.000003
2035.378296,-0.000009
2035.860499,-0.000085
2036.342701,-0.000108
2036.824904,-0.000058
2037.307107,-0.000034
2037.789310,-0.000026
2038.271513,-0.000100
2038.753716,-0.000112
2039.235919,0.000052
2039.718121,0.000094
2040.200324,0.000039
2040.682527,0.000062
2041.164730,0.000047
2041.646933,0.000044
2042.129136,0.000086
2042.611339,0.000073
2043.093542,0.000060
2043.575744,0.000049
2044.057947,-0.000003
2044.540150,-0.000037
2045.022353,-0.000094
2045.504556,-0.000118
2045.986759,0.000009
2046.468962,0.000060
2046.951164,-0.000065
2047.433367,-0.000137
2047.915570,-0.000122
2048.397773,-0.000094
2048.879976,-0.000083
2049.362179,-0.000069
2049.844382,-0.000042
2050.326585,-0.000055
2050.808787,-0.000028
2051.290990,0.000021
2051.773193,-0.000013
2052.255396,-0.000021
2052.737599,0.000004
2053.219802,-0.000015
2053.702005,-0.000025
2054.184207,0.000003
2054.666410,0.000073
2055.148613,0.000125
2055.630816,0.000061
2056.113019,-0.000001
2056.595222,0.000037
2057.077425,0.000048
2057.559628,0.000001
2058.041830,-0.000044
2058.524033,-0.000046
2059.006236,0.000004
2059.488439,0.000010
2059.970642,0.000001
2060.452845,0.000034
2060.935048,0.000029
2061.417250,0.000007
2061.899453,0.000000
2062.381656,-0.000045
2062.863859,-0.000092
2063.346062,-0.000098
2063.828265,-0.000079
2064.310468,-0.000036
2064.792671,0.000000
2065.274873,-0.000007
2065.757076,-0.000099
2066.239279,-0.000191
2066.721482,-0.000141
2067.203685,-0.000074
2067.685888,-0.000066
2068.168091,-0.000037
2068.650293,-0.000020
2069.132496,-0.000035
2069.614699,-0.000070
2070.096902,-0.000112
2070.579105,-0.000150
2071.061308,-0.000157
2071.543511,-0.000116
2072.025713,-0.000101
2072.507916,-0.000077
2072.990119,0.000006
2073.472322,-0.000001
2073.954525,-0.000084
2074.436728,-0.000067
2074.918931,0.000003
2075.401134,0.000004
2075.883336,-0.000049
2076.365539,-0.000083
2076.847742,-0.000068
2077.329945,-0.000020
2077.812148,0.000115
2078.294351,0.000213
2078.776554,0.000076
2079.258756,-0.000072
2079.740959,-0.000063
2080.223162,-0.000061
2080.705365,-0.000052
2081.187568,0.000009
2081.669771,0.000015
2082.151974,0.000018
2082.634177,0.000055
2083.116379,-0.000005
2083.598582,-0.000098
2084.080785,-0.000100
2084.562988,-0.000081
2085.045191,-0.000050
2085.527394,0.000001
2086.009597,0.000047
2086.491799,0.000091
2086.974002,0.000057
2087.456205,-0.000035
2087.938408,-0.000058
2088.420611,-0.000065
2088.902814,-0.000076
2089.385017,-0.000011
2089.867220,0.000032
2090.349422,0.000057
2090.831625,0.000058
2091.313828,-0.000077
2091.796031,-0.000106
2092.278234,0.000006
2092.760437,-0.000006
2093.242640,-0.000013
2093.724842,0.000031
2094.207045,0.000038
2094.689248,0.000097
2095.171451,0.000050
2095.653654,-0.000140
2096.135857,-0.000188
2096.618060,-0.000118
2097.100262,-0.000090
2097.582465,-0.000070
2098.064668,-0.000054
2098.546871,0.000002
2099.029074,0.000157
2099.511277,0.000204
2099.993480,0.000052
2100.475683,-0.000086
2100.957885,-0.000099
2101.440088,-0.000061
2101.922291,-0.000081
2102.404494,-0.000089
2102.886697,0.000077
2103.368900,0.000242
2103.851103,0.000105
2104.333305,-0.000119
2104.815508,-0.000084
2105.297711,0.000008
2105.779914,-0.000041
2106.262117,-0.000087
2106.744320,-0.000039
2107.226523,0.000116
2107.708726,0.000207
2108.190928,0.000081
2108.673131,-0.000022
2109.155334,0.000019
2109.637537,0.000027
2110.119740,-0.000014
2110.601943,-0.000019
2111.084146,0.000027
2111.566348,0.000111
2112.048551,0.000127
2112.530754,0.000059
2113.012957,-0.000004
2113.495160,-0.000060
2113.977363,-0.000053
2114.459566,0.000009
2114.941769,0.000030
2115.423971,0.000117
2115.906174,0.000249
2116.388377,0.000188
2116.870580,0.000045
2117.352783,0.000011
2117.834986,-0.000002
2118.317189,0.000010
2118.799391,0.000084
2119.281594,0.000141
2119.763797,0.000205
2120.246000,0.000224
2120.728203,0.000128
2121.210406,0.000050
2121.692609,0.000013
2122.174812,-0.000017
2122.657014,0.000022
2123.139217,0.000095
2123.621420,0.000139
2124.103623,0.000093
2124.585826,-0.000003
2125.068029,-0.000029
2125.550232,-0.000050
2126.032434,-0.000043
2126.514637,0.000013
2126.996840,-0.000019
2127.479043,-0.000017
2127.961246,0.000056
2128.443449,0.000018
2128.925652,-0.000065
2129.407854,-0.000116
2129.890057,-0.000176
2130.372260,-0.000202
2130.854463,-0.000153
2131.336666,0.000014
2131.818869,0.000168
2132.301072,0.000056
2132.783275,-0.000097
2133.265477,-0.000020
2133.747680,0.000043
2134.229883,-0.000025
2134.712086,-0.000068
2135.194289,-0.000018
2135.676492,0.000046
2136.158695,0.000022
2136.640897,-0.000019
2137.123100,0.000012
2137.605303,0.000038
2138.087506,0.000000
2138.569709,-0.000014
2139.051912,0.000044
2139.534115,0.000068
2140.016318,0.000020
2140.498520,-0.000026
2140.980723,-0.000055
2141.462926,-0.000097
2141.945129,-0.000083
2142.427332,-0.000030
2142.909535,-0.000070
2143.391738,-0.000097
2143.873940,-0.000073
2144.356143,-0.000120
2144.838346,-0.000150
2145.320549,-0.000110
2145.802752,-0.000027
2146.284955,0.000037
2146.767158,0.000025
2147.249361,0.000054
2147.731563,0.000054
2148.213766,-0.000052
2148.695969,-0.000072
2149.178172,-0.000042
2149.660375,-0.000102
2150.142578,-0.000135
2150.624781,-0.000046
2151.106983,0.000023
2151.589186,-0.000054
2152.071389,-0.000098
2152.553592,-0.000018
2153.035795,-0.000002
2153.517998,-0.000063
2154.000201,-0.000047
2154.482404,0.000070
2154.964606,0.000107
2155.446809,-0.000015
2155.929012,-0.000108
2156.411215,-0.000131
2156.893418,-0.000120
2157.375621,-0.000097
2157.857824,-0.000054
2158.340026,0.000090
2158.822229,0.000115
2159.304432,-0.000029
2159.786635,-0.000112
2160.268838,-0.000134
2160.751041,-0.000030
2161.233244,0.000100
2161.715446,0.000136
2162.197649,0.000172
2162.679852,0.000097
2163.162055,0.000003
2163.644258,-0.000013
2164.126461,-0.000071
2164.608664,-0.000050
2165.090867,0.000063
2165.573069,0.000124
2166.055272,0.000069
2166.537475,-0.000070
2167.019678,-0.000126
2167.501881,-0.000061
2167.984084,0.000002
2168.466287,0.000034
2168.948489,0.000164
2169.430692,0.000287
2169.912895,0.000165
2170.395098,-0.000018
2170.877301,-0.000048
2171.359504,0.000037
2171.841707,0.000133
2172.323910,0.000210
2172.806112,0.000312
2173.288315,0.000241
2173.770518,0.000025
2174.252721,-0.000004
2174.734924,0.000044
2175.217127,0.000012
2175.699330,0.000088
2176.181532,0.000319
2176.663735,0.000394
2177.145938,0.000195
2177.628141,0.000037
2178.110344,0.000048
2178.592547,0.000076
2179.074750,0.000121
2179.556953,0.000247
2180.039155,0.000275
2180.521358,0.000144
2181.003561,0.000084
2181.485764,0.000065
2181.967967,0.000020
2182.450170,0.000098
2182.932373,0.000246
2183.414575,0.000272
2183.896778,0.000160
2184.378981,0.000041
2184.861184,0.000007
2185.343387,0.000022
2185.825590,0.000057
2186.307793,0.000185
2186.789995,0.000318
2187.272198,0.000295
2187.754401,0.000276
2188.236604,0.000315
2188.718807,0.000260
2189.201010,0.000241
2189.683213,0.000383
2190.165416,0.000479
2190.647618,0.000348
2191.129821,0.000184
2191.612024,0.000218
2192.094227,0.000322
2192.576430,0.000376
2193.058633,0.000473
2193.540836,0.000542
2194.023038,0.000422
2194.505241,0.000303
2194.987444,0.000353
2195.469647,0.000385
2195.951850,0.000364
2196.434053,0.000430
2196.916256,0.000529
2197.398459,0.000535
2197.880661,0.000507
2198.362864,0.000571
2198.845067,0.000625
2199.327270,0.000620
2199.809473,0.000697
2200.291676,0.000739
2200.773879,0.000670
2201.256081,0.000648
2201.738284,0.000663
2202.220487,0.000687
2202.702690,0.000729
2203.184893,0.000765
2203.667096,0.000783
2204.149299,0.000740
2204.631502,0.000729
2205.113704,0.000793
2205.595907,0.000834
2206.078110,0.000860
2206.560313,0.000893
2207.042516,0.000890
2207.524719,0.000845
2208.006922,0.000837
2208.489124,0.000829
2208.971327,0.000805
2209.453530,0.000905
2209.935733,0.000976
2210.417936,0.000910
2210.900139,0.000895
2211.382342,0.000958
2211.864545,0.001051
2212.346747,0.001042
2212.828950,0.000884
2213.311153,0.000797
2213.793356,0.000813
2214.275559,0.000813
2214.757762,0.000801
2215.239965,0.000792
2215.722167,0.000775
2216.204370,0.000742
2216.686573,0.000696
2217.168776,0.000669
2217.650979,0.000670
2218.133182,0.000606
2218.615385,0.000519
2219.097587,0.000577
2219.579790,0.000620
2220.061993,0.000500
2220.544196,0.000402
2221.026399,0.000438
2221.508602,0.000477
2221.990805,0.000358
2222.473008,0.000172
2222.955210,0.000112
2223.437413,0.000170
2223.919616,0.000227
2224.401819,0.000224
2224.884022,0.000238
2225.366225,0.000293
2225.848428,0.000332
2226.330630,0.000390
2226.812833,0.000472
2227.295036,0.000537
2227.777239,0.000609
2228.259442,0.000718
2228.741645,0.000825
2229.223848,0.000917
2229.706051,0.000948
2230.188253,0.000920
2230.670456,0.000984
2231.152659,0.001071
2231.634862,0.001086
2232.117065,0.001147
2232.599268,0.001227
2233.081471,0.001276
2233.563673,0.001267
2234.045876,0.001207
2234.528079,0.001226
2235.010282,0.001279
2235.492485,0.001289
2235.974688,0.001295
2236.456891,0.001263
2236.939094,0.001233
2237.421296,0.001301
2237.903499,0.001386
2238.385702,0.001363
2238.867905,0.001319
2239.350108,0.001312
2239.832311,0.001269
2240.314514,0.001239
2240.796716,0.001258
2241.278919,0.001231
2241.761122,0.001135
2242.243325,0.001040
2242.725528,0.001002
2243.207731,0.000981
2243.689934,0.000923
2244.172137,0.000913
2244.654339,0.000981
2245.136542,0.000937
2245.618745,0.000794
2246.100948,0.000773
2246.583151,0.000792
2247.065354,0.000704
2247.547557,0.000628
2248.029759,0.000610
2248.511962,0.000597
2248.994165,0.000618
2249.476368,0.000549
2249.958571,0.000360
2250.440774,0.000324
2250.922977,0.000407
2251.405179,0.000411
2251.887382,0.000393
2252.369585,0.000400
2252.851788,0.000404
2253.333991,0.000318
2253.816194,0.000170
2254.298397,0.000139
2254.780600,0.000193
2255.262802,0.000207
2255.745005,0.000139
2256.227208,0.000112
2256.709411,0.000203
2257.191614,0.000211
2257.673817,0.000148
2258.156020,0.000174
2258.638222,0.000206
2259.120425,0.000167
2259.602628,0.000117
2260.084831,0.000138
2260.567034,0.000134
2261.049237,0.000054
2261.531440,0.000079
2262.013643,0.000132
2262.495845,0.000086
2262.978048,0.000062
2263.460251,0.000052
2263.942454,0.000007
2264.424657,-0.000022
2264.906860,-0.000019
2265.389063,0.000013
2265.871265,0.000025
2266.353468,0.000012
2266.835671,0.000001
2267.317874,-0.000021
2267.800077,-0.000025
2268.282280,-0.000044
2268.764483,-0.000090
2269.246686,-0.000060
2269.728888,-0.000047
2270.211091,-0.000082
2270.693294,-0.000010
2271.175497,0.000030
2271.657700,-0.000046
2272.139903,-0.000038
2272.622106,0.000031
2273.104308,0.000066
2273.586511,0.000089
2274.068714,0.000088
2274.550917,0.000083
2275.033120,0.000126
2275.515323,0.000179
2275.997526,0.000163
2276.479729,0.000106
2276.961931,0.000065
2277.444134,0.000068
2277.926337,0.000152
2278.408540,0.000222
2278.890743,0.000149
2279.372946,0.000085
2279.855149,0.000194
2280.337351,0.000285
2280.819554,0.000256
2281.301757,0.000266
2281.783960,0.000267
2282.266163,0.000154
2282.748366,0.000045
2283.230569,0.000080
2283.712771,0.000176
2284.194974,0.000169
2284.677177,0.000146
2285.159380,0.000140
2285.641583,0.000067
2286.123786,0.000082
2286.605989,0.000179
2287.088192,0.000165
2287.570394,0.000090
2288.052597,0.000070
2288.534800,0.000068
2289.017003,0.000067
2289.499206,0.000078
2289.981409,0.000033
2290.463612,0.000006
2290.945814,0.000036
2291.428017,-0.000047
2291.910220,-0.000162
2292.392423,-0.000205
2292.874626,-0.000251
2293.356829,-0.000285
2293.839032,-0.000308
2294.321235,-0.000317
2294.803437,-0.000299
2295.285640,-0.000300
2295.767843,-0.000320
2296.250046,-0.000312
2296.732249,-0.000299
2297.214452,-0.000303
2297.696655,-0.000266
2298.178857,-0.000289
2298.661060,-0.000358
2299.143263,-0.000270
2299.625466,-0.000234
2300.107669,-0.000398
2300.589872,-0.000505
2301.072075,-0.000503
2301.554278,-0.000491
2302.036480,-0.000513
2302.518683,-0.000629
2303.000886,-0.000722
2303.483089,-0.000633
2303.965292,-0.000490
2304.447495,-0.000546
2304.929698,-0.000758
2305.411900,-0.000811
2305.894103,-0.000576
2306.376306,-0.000481
2306.858509,-0.000570
2307.340712,-0.000497
2307.822915,-0.000254
2308.305118,-0.000172
2308.787320,-0.000301
2309.269523,-0.000383
2309.751726,-0.000164
2310.233929,0.000157
2310.716132,0.000117
2311.198335,-0.000128
2311.680538,-0.000038
2312.162741,0.000301
2312.644943,0.000369
2313.127146,0.000034
2313.609349,-0.000062
2314.091552,0.000369
2314.573755,0.000542
2315.055958,0.000183
2315.538161,0.000082
2316.020363,0.000621
2316.502566,0.000970
2316.984769,0.000541
2317.466972,0.000116
2317.949175,0.000524
2318.431378,0.000976
2318.913581,0.000637
2319.395784,0.000162
2319.877986,0.000546
2320.360189,0.001059
2320.842392,0.000742
2321.324595,0.000154
2321.806798,0.000540
2322.289001,0.001335
2322.771204,0.001048
2323.253406,0.000197
2323.735609,0.000611
2324.217812,0.001416
2324.700015,0.001005
2325.182218,0.000270
2325.664421,0.000747
2326.146624,0.001420
2326.628827,0.000936
2327.111029,0.000175
2327.593232,0.000707
2328.075435,0.001297
2328.557638,0.000551
2329.039841,-0.000176
2329.522044,0.000681
2330.004247,0.001222
2330.486449,0.000292
2330.968652,-0.000212
2331.450855,0.000858
2331.933058,0.001223
2332.415261,0.000260
2332.897464,0.000225
2333.379667,0.001217
2333.861870,0.000979
2334.344072,-0.000022
2334.826275,0.000539
2335.308478,0.001437
2335.790681,0.000736
2336.272884,-0.000206
2336.755087,0.000585
2337.237290,0.001085
2337.719492,0.000198
2338.201695,0.000214
2338.683898,0.001294
2339.166101,0.000983
2339.648304,0.000012
2340.130507,0.000774
2340.612710,0.001501
2341.094912,0.000663
2341.577115,0.000448
2342.059318,0.001427
2342.541521,0.001191
2343.023724,0.000466
2343.505927,0.001246
2343.988130,0.001706
2344.470333,0.001033
2344.952535,0.001341
2345.434738,0.002313
2345.916941,0.002150
2346.399144,0.001960
2346.881347,0.002785
2347.363550,0.003180
2347.845753,0.003038
2348.327955,0.003373
2348.810158,0.003779
2349.292361,0.003790
2349.774564,0.003565
2350.256767,0.003329
2350.738970,0.003300
2351.221173,0.002908
2351.703376,0.002212
2352.185578,0.002343
2352.667781,0.002366
2353.149984,0.001610
2353.632187,0.001725
2354.114390,0.001916
2354.596593,0.001046
2355.078796,0.001126
2355.560998,0.001511
2356.043201,0.000662
2356.525404,0.000786
2357.007607,0.001335
2357.489810,0.000624
2357.972013,0.000865
2358.454216,0.001254
2358.936419,0.000386
2359.418621,0.000793
2359.900824,0.001177
2360.383027,0.000310
2360.865230,0.000771
2361.347433,0.001060
2361.829636,0.000500
2362.311839,0.000937
2362.794041,0.000808
2363.276244,0.000415
2363.758447,0.000804
2364.240650,0.000230
2364.722853,0.000073
2365.205056,0.000239
2365.687259,-0.000289
2366.169462,0.000047
2366.651664,-0.000007
2367.133867,-0.000273
2367.616070,-0.000051
2368.098273,-0.000354
2368.580476,-0.000218
2369.062679,-0.000240
2369.544882,-0.000473
2370.027084,-0.000207
2370.509287,-0.000320
2370.991490,-0.000327
2371.473693,-0.000281
2371.955896,-0.000337
2372.438099,-0.000217
2372.920302,-0.000302
2373.402504,-0.000322
2373.884707,-0.000299
2374.366910,-0.000270
2374.849113,-0.000214
2375.331316,-0.000263
2375.813519,-0.000235
2376.295722,-0.000214
2376.777925,-0.000199
2377.260127,-0.000244
2377.742330,-0.000351
2378.224533,-0.000328
2378.706736,-0.000311
2379.188939,-0.000336
2379.671142,-0.000348
2380.153345,-0.000404
2380.635547,-0.000470
2381.117750,-0.000358
2381.599953,-0.000310
2382.082156,-0.000296
2382.564359,-0.000225
2383.046562,-0.000176
2383.528765,-0.000134
2384.010968,-0.000086
2384.493170,-0.000099
2384.975373,-0.000107
2385.457576,-0.000138
2385.939779,-0.000207
2386.421982,-0.000111
2386.904185,0.000026
2387.386388,-0.000021
2387.868590,-0.000064
2388.350793,-0.000068
2388.832996,-0.000111
2389.315199,-0.000045
2389.797402,0.000070
2390.279605,0.000009
2390.761808,-0.000078
2391.244011,0.000027
2391.726213,0.000056
2392.208416,-0.000065
2392.690619,-0.000106
2393.172822,-0.000111
2393.655025,-0.000054
2394.137228,0.000069
2394.619431,0.000088
2395.101633,0.000031
2395.583836,0.000011
2396.066039,-0.000013
2396.548242,-0.000086
2397.030445,-0.000089
2397.512648,-0.000011
2397.994851,-0.000007
2398.477053,-0.000050
2398.959256,-0.000064
2399.441459,-0.000054
2399.923662,-0.000007
2400.405865,0.000012
2400.888068,-0.000009
2401.370271,0.000022
2401.852474,0.000052
2402.334676,0.000048
2402.816879,0.000033
2403.299082,0.000011
2403.781285,0.000018
2404.263488,0.000001
2404.745691,-0.000025
2405.227894,-0.000001
2405.710096,0.000024
2406.192299,0.000050
2406.674502,0.000062
2407.156705,0.000004
2407.638908,-0.000068
2408.121111,-0.000047
2408.603314,0.000020
2409.085517,-0.000014
2409.567719,-0.000092
2410.049922,-0.000078
2410.532125,-0.000058
2411.014328,-0.000086
2411.496531,-0.000103
2411.978734,-0.000091
2412.460937,0.000008
2412.943139,0.000119
2413.425342,0.000071
2413.907545,-0.000058
2414.389748,-0.000114
2414.871951,-0.000074
2415.354154,-0.000024
2415.836357,-0.000038
2416.318560,-0.000081
2416.800762,-0.000081
2417.282965,-0.000052
2417.765168,-0.000044
2418.247371,0.000003
2418.729574,0.000059
2419.211777,0.000043
2419.693980,0.000061
2420.176182,0.000095
2420.658385,0.000019
2421.140588,-0.000045
2421.622791,0.000013
2422.104994,0.000030
2422.587197,-0.000041
2423.069400,-0.000012
2423.551603,0.000029
2424.033805,-0.000058
2424.516008,-0.000066
2424.998211,-0.000003
2425.480414,-0.000031
2425.962617,-0.000040
2426.444820,0.000048
2426.927023,0.000146
2427.409225,0.000107
2427.891428,-0.000011
2428.373631,-0.000023
2428.855834,0.000017
2429.338037,0.000064
2429.820240,0.000104
2430.302443,0.000068
2430.784645,0.000005
2431.266848,-0.000067
2431.749051,-0.000156
2432.231254,-0.000158
2432.713457,-0.000053
2433.195660,0.000027
2433.677863,-0.000022
2434.160066,-0.000071
2434.642268,0.000028
2435.124471,0.000110
2435.606674,0.000074
2436.088877,0.000033
2436.571080,-0.000008
2437.053283,0.000012
2437.535486,0.000072
2438.017688,0.000019
2438.499891,-0.000024
2438.982094,0.000003
2439.464297,0.000001
2439.946500,-0.000027
2440.428703,-0.000074
2440.910906,-0.000080
2441.393109,-0.000040
2441.875311,-0.000038
2442.357514,-0.000037
2442.839717,-0.000001
2443.321920,0.000007
2443.804123,-0.000008
2444.286326,-0.000010
2444.768529,-0.000020
2445.250731,-0.000016
2445.732934,-0.000033
2446.215137,-0.000059
2446.697340,-0.000024
2447.179543,-0.000032
2447.661746,-0.000073
2448.143949,-0.000059
2448.626152,-0.000016
2449.108354,0.000039
2449.590557,0.000007
2450.072760,-0.000011
2450.554963,0.000123
2451.037166,0.000160
2451.519369,0.000047
2452.001572,0.000014
2452.483774,0.000034
2452.965977,0.000013
2453.448180,0.000003
2453.930383,0.000059
2454.412586,0.000173
2454.894789,0.000187
2455.376992,0.000088
2455.859195,0.000077
2456.341397,0.000101
2456.823600,0.000050
2457.305803,0.000007
2457.788006,0.000074
2458.270209,0.000194
2458.752412,0.000167
2459.234615,0.000095
2459.716817,0.000114
2460.199020,0.000024
2460.681223,-0.000088
2461.163426,-0.000018
2461.645629,0.000086
2462.127832,0.000113
2462.610035,0.000068
2463.092237,-0.000026
2463.574440,-0.000044
2464.056643,0.000067
2464.538846,0.000150
2465.021049,0.000117
2465.503252,0.000105
2465.985455,0.000146
2466.467658,0.000119
2466.949860,0.000075
2467.432063,0.000107
2467.914266,0.000135
2468.396469,0.000135
2468.878672,0.000157
2469.360875,0.000131
2469.843078,0.000066
2470.325280,0.000039
2470.807483,0.000076
2471.289686,0.000184
2471.771889,0.000221
2472.254092,0.000155
2472.736295,0.000143
2473.218498,0.000131
2473.700701,0.000074
2474.182903,0.000076
2474.665106,0.000128
2475.147309,0.000217
2475.629512,0.000274
2476.111715,0.000182
2476.593918,0.000133
2477.076121,0.000260
2477.558323,0.000314
2478.040526,0.000223
2478.522729,0.000164
2479.004932,0.000147
2479.487135,0.000141
2479.969338,0.000218
2480.451541,0.000257
2480.933744,0.000211
2481.415946,0.000228
2481.898149,0.000227
2482.380352,0.000175
2482.862555,0.000193
2483.344758,0.000208
2483.826961,0.000177
2484.309164,0.000163
2484.791366,0.000200
2485.273569,0.000185
2485.755772,0.000091
2486.237975,0.000126
2486.720178,0.000169
2487.202381,0.000101
2487.684584,0.000113
2488.166786,0.000107
2488.648989,0.000042
2489.131192,0.000024
2489.613395,0.000036
2490.095598,0.000106
2490.577801,0.000073
2491.060004,-0.000008
2491.542207,0.000099
2492.024409,0.000224
2492.506612,0.000299
2492.988815,0.000371
2493.471018,0.000399
2493.953221,0.000410
2494.435424,0.000328
2494.917627,0.000159
2495.399829,0.000052
2495.882032,0.000025
2496.364235,0.000040
2496.846438,0.000088
2497.328641,0.000103
2497.810844,0.000082
2498.293047,0.000095
2498.775250,0.000073
2499.257452,0.000025
2499.739655,0.000038
2500.221858,0.000074
2500.704061,0.000128
2501.186264,0.000144
2501.668467,0.000113
2502.150670,0.000180
2502.632872,0.000280
2503.115075,0.000292
2503.597278,0.000295
2504.079481,0.000313
2504.561684,0.000305
2505.043887,0.000281
2505.526090,0.000288
2506.008293,0.000290
2506.490495,0.000238
2506.972698,0.000259
2507.454901,0.000322
2507.937104,0.000250
2508.419307,0.000183
2508.901510,0.000226
2509.383713,0.000242
2509.865915,0.000229
2510.348118,0.000226
2510.830321,0.000198
2511.312524,0.000157
2511.794727,0.000095
2512.276930,0.000041
2512.759133,0.000078
2513.241336,0.000156
2513.723538,0.000148
2514.205741,0.000105
2514.687944,0.000137
2515.170147,0.000161
2515.652350,0.000147
2516.134553,0.000123
2516.616756,0.000033
2517.098958,0.000026
2517.581161,0.000140
2518.063364,0.000154
2518.545567,0.000137
2519.027770,0.000131
2519.509973,0.000037
2519.992176,0.000010
2520.474378,0.000045
2520.956581,0.000035
2521.438784,0.000062
2521.920987,0.000092
2522.403190,0.000054
2522.885393,0.000026
2523.367596,0.000036
2523.849799,0.000030
2524.332001,0.000032
2524.814204,0.000046
2525.296407,0.000079
2525.778610,0.000180
2526.260813,0.000174
2526.743016,0.000015
2527.225219,-0.000031
2527.707421,0.000053
2528.189624,0.000056
2528.671827,-0.000042
2529.154030,-0.000061
2529.636233,-0.000053
2530.118436,-0.000119
2530.600639,-0.000096
2531.082842,-0.000041
2531.565044,-0.000050
2532.047247,-0.000020
2532.529450,0.000008
2533.011653,-0.000024
2533.493856,-0.000065
2533.976059,-0.000019
2534.458262,0.000047
2534.940464,-0.000000
2535.422667,-0.000022
2535.904870,0.000027
2536.387073,-0.000013
2536.869276,-0.000096
2537.351479,-0.000123
2537.833682,-0.000100
2538.315885,0.000004
2538.798087,0.000089
2539.280290,0.000015
2539.762493,-0.000092
2540.244696,-0.000129
2540.726899,-0.000113
2541.209102,-0.000016
2541.691305,0.000097
2542.173507,0.000126
2542.655710,0.000092
2543.137913,0.000036
2543.620116,-0.000060
2544.102319,-0.000155
2544.584522,-0.000147
2545.066725,-0.000072
2545.548928,-0.000006
2546.031130,0.000038
2546.513333,0.000016
2546.995536,-0.000014
2547.477739,0.000005
2547.959942,-0.000013
2548.442145,-0.000049
2548.924348,0.000004
2549.406550,0.000046
2549.888753,-0.000024
2550.370956,-0.000068
2550.853159,-0.000017
2551.335362,0.000054
2551.817565,0.000031
2552.299768,-0.000039
2552.781970,0.000055
2553.264173,0.000148
2553.746376,0.000017
2554.228579,-0.000127
2554.710782,-0.000086
2555.192985,0.000004
2555.675188,-0.000036
2556.157391,-0.000042
2556.639593,0.000047
2557.121796,0.000040
2557.603999,-0.000027
2558.086202,-0.000071
2558.568405,-0.000047
2559.050608,-0.000041
2559.532811,-0.000089
2560.015013,-0.000028
2560.497216,0.000018
2560.979419,-0.000015
2561.461622,-0.000017
2561.943825,-0.000025
2562.426028,0.000002
2562.908231,0.000039
2563.390434,-0.000011
2563.872636,-0.000065
2564.354839,-0.000044
2564.837042,-0.000009
2565.319245,-0.000026
2565.801448,-0.000046
2566.283651,-0.000037
2566.765854,0.000005
2567.248056,0.000077
2567.730259,0.000056
2568.212462,-0.000050
2568.694665,-0.000074
2569.176868,-0.000028
2569.659071,0.000022
2570.141274,0.000030
2570.623477,-0.000013
2571.105679,0.000011
2571.587882,0.000009
2572.070085,-0.000103
2572.552288,-0.000082
2573.034491,0.000036
2573.516694,0.000035
2573.998897,-0.000015
2574.481099,-0.000015
2574.963302,0.000107
2575.445505,0.000194
2575.927708,0.000067
2576.409911,-0.000042
2576.892114,0.000007
2577.374317,0.000064
2577.856520,0.000046
2578.338722,0.000021
2578.820925,-0.000011
2579.303128,-0.000051
2579.785331,0.000025
2580.267534,0.000060
2580.749737,-0.000038
2581.231940,-0.000073
2581.714142,-0.000078
2582.196345,-0.000100
2582.678548,-0.000121
2583.160751,-0.000139
2583.642954,-0.000138
2584.125157,-0.000119
2584.607360,-0.000075
2585.089562,-0.000147
2585.571765,-0.000242
2586.053968,-0.000181
2586.536171,-0.000099
2587.018374,-0.000010
2587.500577,0.000041
2587.982780,0.000026
2588.464983,0.000073
2588.947185,0.000115
2589.429388,0.000112
2589.911591,0.000057
2590.393794,-0.000018
2590.875997,0.000021
2591.358200,0.000090
2591.840403,0.000047
2592.322605,-0.000015
2592.804808,0.000030
2593.287011,0.000069
2593.769214,-0.000009
2594.251417,-0.000038
2594.733620,0.000066
2595.215823,0.000114
2595.698026,0.000007
2596.180228,-0.000045
2596.662431,-0.000012
2597.144634,-0.000082
2597.626837,-0.000123
2598.109040,-0.000041
2598.591243,0.000005
2599.073446,-0.000038
2599.555648,-0.000112
2600.037851,-0.000158
2600.520054,-0.000173
2601.002257,-0.000144
2601.484460,-0.000033
2601.966663,0.000052
2602.448866,0.000018
2602.931069,-0.000051
2603.413271,-0.000088
2603.895474,-0.000077
2604.377677,-0.000008
2604.859880,0.000009
2605.342083,-0.000062
2605.824286,-0.000101
2606.306489,-0.000091
2606.788691,-0.000088
2607.270894,-0.000099
2607.753097,-0.000098
2608.235300,-0.000065
2608.717503,-0.000001
2609.199706,0.000069
2609.681909,0.000043
2610.164111,-0.000020
2610.646314,0.000058
2611.128517,0.000104
2611.610720,-0.000016
2612.092923,-0.000112
2612.575126,-0.000124
2613.057329,-0.000106
2613.539532,-0.000091
2614.021734,-0.000045
2614.503937,0.000017
2614.986140,-0.000001
2615.468343,0.000035
2615.950546,0.000135
2616.432749,0.000112
2616.914952,0.000062
2617.397154,0.000073
2617.879357,0.000101
2618.361560,0.000122
2618.843763,0.000090
2619.325966,0.000072
2619.808169,0.000149
2620.290372,0.000218
2620.772575,0.000163
2621.254777,0.000072
2621.736980,0.000038
2622.219183,0.000011
2622.701386,0.000028
2623.183589,0.000075
2623.665792,0.000040
2624.147995,0.000020
2624.630197,0.000075
2625.112400,0.000127
2625.594603,0.000189
2626.076806,0.000236
2626.559009,0.000212
2627.041212,0.000138
2627.523415,0.000104
2628.005618,0.000137
2628.487820,0.000137
2628.970023,0.000050
2629.452226,-0.000033
2629.934429,-0.000021
2630.416632,0.000018
2630.898835,0.000077
2631.381038,0.000163
2631.863240,0.000161
2632.345443,0.000147
2632.827646,0.000159
2633.309849,0.000123
2633.792052,0.000087
2634.274255,0.000068
2634.756458,0.000064
2635.238661,0.000056
2635.720863,0.000075
2636.203066,0.000133
2636.685269,0.000156
2637.167472,0.000157
2637.649675,0.000088
2638.131878,-0.000020
2638.614081,-0.000049
2639.096283,-0.000044
2639.578486,0.000040
2640.060689,0.000131
2640.542892,0.000080
2641.025095,0.000051
2641.507298,0.000099
2641.989501,0.000063
2642.471703,-0.000016
2642.953906,-0.000039
2643.436109,-0.000030
2643.918312,-0.000002
2644.400515,0.000042
2644.882718,0.000081
2645.364921,0.000094
2645.847124,0.000026
2646.329326,-0.000054
2646.811529,0.000006
2647.293732,0.000072
2647.775935,-0.000032
2648.258138,-0.000114
2648.740341,-0.000037
2649.222544,0.000015
2649.704746,-0.000048
2650.186949,-0.000117
2650.669152,-0.000118
2651.151355,-0.000103
2651.633558,-0.000087
2652.115761,-0.000009
2652.597964,0.000070
2653.080167,0.000047
2653.562369,-0.000065
2654.044572,-0.000139
2654.526775,-0.000101
2655.008978,-0.000023
2655.491181,0.000019
2655.973384,-0.000063
2656.455587,-0.000194
2656.937789,-0.000188
2657.419992,-0.000143
2657.902195,-0.000165
2658.384398,-0.000167
2658.866601,-0.000110
2659.348804,-0.000063
2659.831007,-0.000055
2660.313210,-0.000035
2660.795412,-0.000068
2661.277615,-0.000136
2661.759818,-0.000101
2662.242021,-0.000086
2662.724224,-0.000133
2663.206427,-0.000085
2663.688630,-0.000049
2664.170832,-0.000102
2664.653035,-0.000113
2665.135238,-0.000092
2665.617441,-0.000085
2666.099644,-0.000064
2666.581847,-0.000047
2667.064050,-0.000100
2667.546253,-0.000159
2668.028455,-0.000054
2668.510658,0.000095
2668.992861,0.000077
2669.475064,-0.000030
2669.957267,-0.000094
2670.439470,-0.000092
2670.921673,-0.000061
2671.403875,-0.000039
2671.886078,-0.000057
2672.368281,-0.000102
2672.850484,-0.000120
2673.332687,-0.000141
2673.814890,-0.000167
2674.297093,-0.000138
2674.779295,-0.000082
2675.261498,-0.000094
2675.743701,-0.000129
2676.225904,-0.000060
2676.708107,-0.000028
2677.190310,-0.000088
2677.672513,-0.000054
2678.154716,-0.000043
2678.636918,-0.000135
2679.119121,-0.000128
2679.601324,-0.000041
2680.083527,0.000004
2680.565730,-0.000021
2681.047933,-0.000075
2681.530136,-0.000047
2682.012338,-0.000010
2682.494541,-0.000060
2682.976744,-0.000114
2683.458947,-0.000142
2683.941150,-0.000138
2684.423353,-0.000155
2684.905556,-0.000188
2685.387759,-0.000114
2685.869961,-0.000052
2686.352164,-0.000048
2686.834367,-0.000015
2687.316570,-0.000037
2687.798773,-0.000078
2688.280976,-0.000120
2688.763179,-0.000159
2689.245381,-0.000083
2689.727584,-0.000038
2690.209787,-0.000083
2690.691990,-0.000068
2691.174193,-0.000023
2691.656396,0.000001
2692.138599,0.000007
2692.620802,-0.000011
2693.103004,-0.000074
2693.585207,-0.000118
2694.067410,-0.000051
2694.549613,0.000010
2695.031816,0.000021
2695.514019,0.000009
2695.996222,-0.000041
2696.478424,-0.000065
2696.960627,-0.000063
2697.442830,-0.000058
2697.925033,-0.000087
2698.407236,-0.000104
2698.889439,-0.000014
2699.371642,0.000040
2699.853844,-0.000001
2700.336047,-0.000028
2700.818250,-0.000042
2701.300453,-0.000078
2701.782656,-0.000120
2702.264859,-0.000100
2702.747062,-0.000063
2703.229265,-0.000109
2703.711467,-0.000130
2704.193670,-0.000059
2704.675873,0.000009
2705.158076,0.000021
2705.640279,-0.000067
2706.122482,-0.000169
2706.604685,-0.000145
2707.086887,-0.000093
2707.569090,-0.000085
2708.051293,-0.000065
2708.533496,-0.000073
2709.015699,-0.000146
2709.497902,-0.000167
2709.980105,-0.000093
2710.462308,-0.000107
2710.944510,-0.000208
2711.426713,-0.000173
2711.908916,-0.000022
2712.391119,0.000084
2712.873322,0.000062
2713.355525,-0.000041
2713.837728,-0.000070
2714.319930,-0.000055
2714.802133,-0.000123
2715.284336,-0.000159
2715.766539,-0.000042
2716.248742,0.000043
2716.730945,-0.000051
2717.213148,-0.000116
2717.695351,-0.000013
2718.177553,0.000016
2718.659756,-0.000101
2719.141959,-0.000117
2719.624162,-0.000030
2720.106365,0.000021
2720.588568,0.000047
2721.070771,-0.000025
2721.552973,-0.000140
2722.035176,-0.000096
2722.517379,-0.000000
2722.999582,0.000010
2723.481785,-0.000028
2723.963988,-0.000108
2724.446191,-0.000149
2724.928394,-0.000105
2725.410596,-0.000059
2725.892799,-0.000052
2726.375002,-0.000049
2726.857205,0.000007
2727.339408,0.000058
2727.821611,0.000025
2728.303814,-0.000049
2728.786016,-0.000084
2729.268219,-0.000053
2729.750422,-0.000042
2730.232625,-0.000052
2730.714828,-0.000042
2731.197031,-0.000095
2731.679234,-0.000122
2732.161436,-0.000065
2732.643639,-0.000011
2733.125842,0.000026
2733.608045,0.000016
2734.090248,0.000028
2734.572451,0.000038
2735.054654,-0.000052
2735.536857,-0.000040
2736.019059,0.000039
2736.501262,-0.000049
2736.983465,-0.000116
2737.465668,-0.000030
2737.947871,0.000032
2738.430074,0.000023
2738.912277,-0.000008
2739.394479,-0.000060
2739.876682,-0.000147
2740.358885,-0.000195
2740.841088,-0.000069
2741.323291,0.000024
2741.805494,-0.000059
2742.287697,-0.000094
2742.769900,-0.000111
2743.252102,-0.000149
2743.734305,-0.000116
2744.216508,-0.000091
2744.698711,-0.000078
2745.180914,-0.000049
2745.663117,-0.000042
2746.145320,-0.000048
2746.627522,-0.000010
2747.109725,0.000008
2747.591928,-0.000073
2748.074131,-0.000086
2748.556334,0.000023
2749.038537,0.000091
2749.520740,0.000067
2750.002943,0.000008
2750.485145,-0.000060
2750.967348,-0.000113
2751.449551,-0.000108
2751.931754,-0.000125
2752.413957,-0.000184
2752.896160,-0.000228
2753.378363,-0.000277
2753.860565,-0.000222
2754.342768,-0.000106
2754.824971,-0.000125
2755.307174,-0.000135
2755.789377,-0.000008
2756.271580,0.000099
2756.753783,0.000090
2757.235986,0.000067
2757.718188,0.000093
2758.200391,0.000067
2758.682594,-0.000014
2759.164797,-0.000055
2759.647000,-0.000031
2760.129203,0.000016
2760.611406,-0.000006
2761.093608,-0.000052
2761.575811,-0.000051
2762.058014,-0.000043
2762.540217,-0.000026
2763.022420,0.000009
2763.504623,0.000048
2763.986826,0.000050
2764.469028,0.000009
2764.951231,0.000013
2765.433434,0.000062
2765.915637,0.000082
2766.397840,0.000004
2766.880043,-0.000094
2767.362246,-0.000069
2767.844449,-0.000037
2768.326651,-0.000042
2768.808854,-0.000048
2769.291057,-0.000118
2769.773260,-0.000153
2770.255463,-0.000112
2770.737666,-0.000057
2771.219869,0.000011
2771.702071,0.000045
2772.184274,0.000075
2772.666477,0.000124
2773.148680,0.000121
2773.630883,0.000040
2774.113086,-0.000060
2774.595289,-0.000105
2775.077492,-0.000147
2775.559694,-0.000167
2776.041897,-0.000093
2776.524100,-0.000057
2777.006303,-0.000035
2777.488506,0.000087
2777.970709,0.000103
2778.452912,-0.000003
2778.935114,0.000010
2779.417317,0.000036
2779.899520,-0.000040
2780.381723,-0.000114
2780.863926,-0.000080
2781.346129,0.000051
2781.828332,0.000022
2782.310535,-0.000130
2782.792737,-0.000156
2783.274940,-0.000125
2783.757143,-0.000088
2784.239346,-0.000064
2784.721549,-0.000049
2785.203752,-0.000062
2785.685955,-0.000165
2786.168157,-0.000153
2786.650360,-0.000031
2787.132563,-0.000033
2787.614766,-0.000104
2788.096969,-0.000065
2788.579172,0.000068
2789.061375,0.000041
2789.543577,-0.000086
2790.025780,-0.000057
2790.507983,-0.000053
2790.990186,-0.000169
2791.472389,-0.000206
2791.954592,-0.000128
2792.436795,-0.000015
2792.918998,0.000047
2793.401200,-0.000005
2793.883403,-0.000059
2794.365606,-0.000024
2794.847809,-0.000034
2795.330012,-0.000067
2795.812215,-0.000017
2796.294418,-0.000023
2796.776620,-0.000054
2797.258823,-0.000031
2797.741026,-0.000082
2798.223229,-0.000100
2798.705432,-0.000019
2799.187635,-0.000018
2799.669838,-0.000054
2800.152041,-0.000049
2800.634243,-0.000089
2801.116446,-0.000149
2801.598649,-0.000160
2802.080852,-0.000149
2802.563055,-0.000138
2803.045258,-0.000106
2803.527461,-0.000086
2804.009663,-0.000104
2804.491866,-0.000073
2804.974069,0.000023
2805.456272,0.000042
2805.938475,-0.000035
2806.420678,-0.000016
2806.902881,0.000040
2807.385084,-0.000018
2807.867286,-0.000015
2808.349489,0.000013
2808.831692,0.000010
2809.313895,0.000107
2809.796098,0.000074
2810.278301,-0.000072
2810.760504,-0.000045
2811.242706,0.000029
2811.724909,0.000072
2812.207112,0.000087
2812.689315,0.000009
2813.171518,-0.000073
2813.653721,-0.000103
2814.135924,-0.000041
2814.618127,0.000052
2815.100329,0.000040
2815.582532,0.000053
2816.064735,0.000137
2816.546938,0.000099
2817.029141,-0.000005
2817.511344,-0.000019
2817.993547,0.000035
2818.475749,0.000081
2818.957952,0.000042
2819.440155,-0.000035
2819.922358,-0.000023
2820.404561,0.000049
2820.886764,0.000106
2821.368967,0.000125
2821.851169,0.000072
2822.333372,-0.000001
2822.815575,-0.000015
2823.297778,-0.000021
2823.779981,-0.000023
2824.262184,0.000055
2824.744387,0.000054
2825.226590,-0.000055
2825.708792,0.000046
2826.190995,0.000227
2826.673198,0.000147
2827.155401,0.000025
2827.637604,0.000098
2828.119807,0.000177
2828.602010,0.000128
2829.084212,0.000070
2829.566415,0.000085
2830.048618,0.000115
2830.530821,0.000123
2831.013024,0.000104
2831.495227,0.000058
2831.977430,0.000017
2832.459633,0.000011
2832.941835,0.000074
2833.424038,0.000166
2833.906241,0.000165
2834.388444,0.000076
2834.870647,0.000084
2835.352850,0.000170
2835.835053,0.000142
2836.317255,0.000101
2836.799458,0.000096
2837.281661,0.000070
2837.763864,0.000190
2838.246067,0.000343
2838.728270,0.000332
2839.210473,0.000302
2839.692676,0.000312
2840.174878,0.000250
2840.657081,0.000139
2841.139284,0.000157
2841.621487,0.000253
2842.103690,0.000303
2842.585893,0.000440
2843.068096,0.000573
2843.550298,0.000486
2844.032501,0.000409
2844.514704,0.000531
2844.996907,0.000578
2845.479110,0.000439
2845.961313,0.000374
2846.443516,0.000454
2846.925719,0.000476
2847.407921,0.000527
2847.890124,0.000740
2848.372327,0.000787
2848.854530,0.000686
2849.336733,0.000714
2849.818936,0.000694
2850.301139,0.000629
2850.783341,0.000691
2851.265544,0.000776
2851.747747,0.000736
2852.229950,0.000706
2852.712153,0.000920
2853.194356,0.001062
2853.676559,0.001019
2854.158761,0.001091
2854.640964,0.001052
2855.123167,0.000990
2855.605370,0.001278
2856.087573,0.001592
2856.569776,0.001626
2857.051979,0.001455
2857.534182,0.001415
2858.016384,0.001683
2858.498587,0.001870
2858.980790,0.001869
2859.462993,0.001936
2859.945196,0.002110
2860.427399,0.002374
2860.909602,0.002661
2861.391804,0.002790
2861.874007,0.002759
2862.356210,0.002675
2862.838413,0.002582
2863.320616,0.002709
2863.802819,0.003066
2864.285022,0.003322
2864.767225,0.003272
2865.249427,0.003159
2865.731630,0.003479
2866.213833,0.003931
2866.696036,0.004154
2867.178239,0.004300
2867.660442,0.004268
2868.142645,0.004427
2868.624847,0.004977
2869.107050,0.005183
2869.589253,0.005154
2870.071456,0.005637
2870.553659,0.005980
2871.035862,0.005952
2871.518065,0.006396
2872.000268,0.006651
2872.482470,0.006730
2872.964673,0.007342
2873.446876,0.007677
2873.929079,0.007678
2874.411282,0.007769
2874.893485,0.008065
2875.375688,0.008641
2875.857890,0.009063
2876.340093,0.009197
2876.822296,0.009208
2877.304499,0.009465
2877.786702,0.010100
2878.268905,0.010685
2878.751108,0.010828
2879.233311,0.010647
2879.715513,0.010957
2880.197716,0.011753
2880.679919,0.012226
2881.162122,0.012236
2881.644325,0.012210
2882.126528,0.012655
2882.608731,0.013415
2883.090933,0.013617
2883.573136,0.013234
2884.055339,0.013351
2884.537542,0.014119
2885.019745,0.014665
2885.501948,0.014590
2885.984151,0.014255
2886.466353,0.014563
2886.948556,0.015439
2887.430759,0.015611
2887.912962,0.014995
2888.395165,0.014858
2888.877368,0.015485
2889.359571,0.015817
2889.841774,0.015430
2890.323976,0.015187
2890.806179,0.015801
2891.288382,0.016409
2891.770585,0.015913
2892.252788,0.015188
2892.734991,0.015462
2893.217194,0.016122
2893.699396,0.016007
2894.181599,0.015273
2894.663802,0.014964
2895.146005,0.015287
2895.628208,0.015226
2896.110411,0.014580
2896.592614,0.014379
2897.074817,0.014457
2897.557019,0.013828
2898.039222,0.013067
2898.521425,0.013291
2899.003628,0.013606
2899.485831,0.012746
2899.968034,0.011793
2900.450237,0.012055
2900.932439,0.012413
2901.414642,0.011518
2901.896845,0.010913
2902.379048,0.011365
2902.861251,0.010978
2903.343454,0.010223
2903.825657,0.010020
2904.307860,0.009336
2904.790062,0.008527
2905.272265,0.007779
2905.754468,0.006523
2906.236671,0.005425
2906.718874,0.005044
2907.201077,0.005408
2907.683280,0.006417
2908.165482,0.007795
2908.647685,0.009410
2909.129888,0.010869
2909.612091,0.012054
2910.094294,0.013617
2910.576497,0.015233
2911.058700,0.016017
2911.540902,0.016988
2912.023105,0.018749
2912.505308,0.019636
2912.987511,0.020159
2913.469714,0.021638
2913.951917,0.022274
2914.434120,0.022427
2914.916323,0.023878
2915.398525,0.024425
2915.880728,0.024157
2916.362931,0.025282
2916.845134,0.025300
2917.327337,0.024733
2917.809540,0.025792
2918.291743,0.025435
2918.773945,0.024998
2919.256148,0.025569
2919.738351,0.024604
2920.220554,0.024414
2920.702757,0.024337
2921.184960,0.023300
2921.667163,0.023057
2922.149366,0.022189
2922.631568,0.021414
2923.113771,0.020911
2923.595974,0.019826
2924.078177,0.019124
2924.560380,0.018017
2925.042583,0.016818
2925.524786,0.015907
2926.006988,0.014840
2926.489191,0.013909
2926.971394,0.012860
2927.453597,0.011840
2927.935800,0.010777
2928.418003,0.009721
2928.900206,0.008931
2929.382409,0.008099
2929.864611,0.007222
2930.346814,0.006270
2930.829017,0.005379
2931.311220,0.004676
2931.793423,0.004029
2932.275626,0.003370
2932.757829,0.002716
2933.240031,0.002283
2933.722234,0.002034
2934.204437,0.001717
2934.686640,0.001291
2935.168843,0.000952
2935.651046,0.000723
2936.133249,0.000499
2936.615452,0.000386
2937.097654,0.000300
2937.579857,0.000170
2938.062060,0.000205
2938.544263,0.000289
2939.026466,0.000157
2939.508669,0.000039
2939.990872,0.000049
2940.473074,-0.000004
2940.955277,-0.000026
2941.437480,0.000004
2941.919683,0.000054
2942.401886,0.000144
2942.884089,0.000113
2943.366292,0.000024
2943.848494,0.000049
2944.330697,0.000132
2944.812900,0.000181
2945.295103,0.000123
2945.777306,0.000024
2946.259509,0.000030
2946.741712,0.000066
2947.223915,0.000037
2947.706117,0.000041
2948.188320,0.000120
2948.670523,0.000167
2949.152726,0.000114
2949.634929,0.000087
2950.117132,0.000127
2950.599335,0.000164
2951.081537,0.000186
2951.563740,0.000192
2952.045943,0.000242
2952.528146,0.000248
2953.010349,0.000210
2953.492552,0.000214
2953.974755,0.000120
2954.456958,0.000081
2954.939160,0.000227
2955.421363,0.000321
2955.903566,0.000286
2956.385769,0.000229
2956.867972,0.000236
2957.350175,0.000212
2957.832378,0.000126
2958.314580,0.000168
2958.796783,0.000250
2959.278986,0.000205
2959.761189,0.000164
2960.243392,0.000224
2960.725595,0.000305
2961.207798,0.000329
2961.690001,0.000308
2962.172203,0.000273
2962.654406,0.000253
2963.136609,0.000324
2963.618812,0.000439
2964.101015,0.000459
2964.583218,0.000432
2965.065421,0.000368
2965.547623,0.000299
2966.029826,0.000350
2966.512029,0.000368
2966.994232,0.000389
2967.476435,0.000497
2967.958638,0.000418
2968.440841,0.000357
2968.923044,0.000426
2969.405246,0.000336
2969.887449,0.000341
2970.369652,0.000452
2970.851855,0.000361
2971.334058,0.000243
2971.816261,0.000204
2972.298464,0.000264
2972.780666,0.000415
2973.262869,0.000414
2973.745072,0.000299
2974.227275,0.000252
2974.709478,0.000203
2975.191681,0.000201
2975.673884,0.000327
2976.156086,0.000396
2976.638289,0.000375
2977.120492,0.000430
2977.602695,0.000448
2978.084898,0.000374
2978.567101,0.000342
2979.049304,0.000338
2979.531507,0.000354
2980.013709,0.000289
2980.495912,0.000201
2980.978115,0.000285
2981.460318,0.000364
2981.942521,0.000380
2982.424724,0.000312
2982.906927,0.000203
2983.389129,0.000331
2983.871332,0.000423
2984.353535,0.000307
2984.835738,0.000239
2985.317941,0.000190
2985.800144,0.000166
2986.282347,0.000138
2986.764550,0.000012
2987.246752,-0.000047
2987.728955,0.000037
2988.211158,0.000092
2988.693361,0.000038
2989.175564,0.000028
2989.657767,0.000144
2990.139970,0.000223
2990.622172,0.000194
2991.104375,0.000174
2991.586578,0.000105
2992.068781,-0.000014
2992.550984,-0.000028
2993.033187,-0.000078
2993.515390,-0.000101
2993.997593,-0.000006
2994.479795,0.000001
2994.961998,0.000060
2995.444201,0.000122
2995.926404,0.000013
2996.408607,-0.000027
2996.890810,0.000036
2997.373013,0.000014
2997.855215,-0.000106
2998.337418,-0.000102
2998.819621,0.000038
2999.301824,0.000085
2999.784027,0.000083
3000.266230,0.000095
3000.748433,0.000109
3001.230635,0.000134
3001.712838,0.000139
3002.195041,0.000133
3002.677244,0.000085
3003.159447,0.000018
3003.641650,-0.000003
3004.123853,-0.000022
3004.606056,-0.000112
3005.088258,-0.000167
3005.570461,0.000001
3006.052664,0.000191
3006.534867,0.000096
3007.017070,-0.000071
3007.499273,-0.000012
3007.981476,0.000096
3008.463678,0.000054
3008.945881,-0.000036
3009.428084,-0.000027
3009.910287,0.000034
3010.392490,-0.000049
3010.874693,-0.000143
3011.356896,-0.000038
3011.839099,0.000088
3012.321301,0.000109
3012.803504,0.000001
3013.285707,-0.000067
3013.767910,0.000078
3014.250113,0.000132
3014.732316,-0.000003
3015.214519,-0.000047
3015.696721,0.000000
3016.178924,0.000023
3016.661127,0.000044
3017.143330,0.000080
3017.625533,0.000090
3018.107736,0.000049
3018.589939,-0.000047
3019.072142,-0.000128
3019.554344,-0.000092
3020.036547,-0.000008
3020.518750,-0.000004
3021.000953,-0.000021
3021.483156,0.000017
3021.965359,0.000030
3022.447562,-0.000085
3022.929764,-0.000201
3023.411967,-0.000095
3023.894170,0.000122
3024.376373,0.000163
3024.858576,0.000067
3025.340779,-0.000013
3025.822982,-0.000076
3026.305185,-0.000115
3026.787387,-0.000112
3027.269590,-0.000074
3027.751793,-0.000040
3028.233996,-0.000043
3028.716199,-0.000015
3029.198402,-0.000003
3029.680605,-0.000078
3030.162807,-0.000102
3030.645010,-0.000036
3031.127213,0.000009
3031.609416,-0.000011
3032.091619,-0.000051
3032.573822,-0.000054
3033.056025,-0.000030
3033.538227,-0.000024
3034.020430,-0.000067
3034.502633,-0.000071
3034.984836,0.000031
3035.467039,0.000088
3035.949242,0.000048
3036.431445,0.000025
3036.913648,0.000057
3037.395850,0.000066
3037.878053,-0.000042
3038.360256,-0.000136
3038.842459,-0.000051
3039.324662,0.000070
3039.806865,0.000053
3040.289068,0.000006
3040.771270,0.000070
3041.253473,0.000168
3041.735676,0.000231
3042.217879,0.000177
3042.700082,-0.000048
3043.182285,-0.000168
3043.664488,-0.000046
3044.146691,0.000074
3044.628893,0.000055
3045.111096,-0.000040
3045.593299,-0.000096
3046.075502,-0.000095
3046.557705,-0.000104
3047.039908,-0.000069
3047.522111,0.000014
3048.004313,0.000045
3048.486516,0.000007
3048.968719,0.000009
3049.450922,0.000109
3049.933125,0.000131
3050.415328,-0.000010
3050.897531,-0.000151
3051.379734,-0.000173
3051.861936,-0.000090
3052.344139,-0.000017
3052.826342,-0.000043
3053.308545,-0.000132
3053.790748,-0.000126
3054.272951,0.000050
3054.755154,0.000216
3055.237356,0.000249
3055.719559,0.000173
3056.201762,0.000005
3056.683965,-0.000103
3057.166168,-0.000063
3057.648371,-0.000018
3058.130574,-0.000026
3058.612777,-0.000020
3059.094979,0.000008
3059.577182,-0.000007
3060.059385,-0.000031
3060.541588,0.000061
3061.023791,0.000086
3061.505994,-0.000047
3061.988197,-0.000031
3062.470399,0.000072
3062.952602,0.000050
3063.434805,0.000039
3063.917008,0.000009
3064.399211,-0.000148
3064.881414,-0.000246
3065.363617,-0.000190
3065.845819,-0.000083
3066.328022,0.000044
3066.810225,0.000125
3067.292428,0.000137
3067.774631,0.000129
3068.256834,0.000070
3068.739037,0.000021
3069.221240,-0.000041
3069.703442,-0.000145
3070.185645,-0.000144
3070.667848,-0.000082
3071.150051,-0.000022
3071.632254,0.000070
3072.114457,0.000105
3072.596660,0.000019
3073.078862,-0.000069
3073.561065,0.000011
3074.043268,0.000126
3074.525471,0.000090
3075.007674,0.000015
3075.489877,0.000005
3075.972080,-0.000037
3076.454283,-0.000160
3076.936485,-0.000146
3077.418688,0.000031
3077.900891,0.000077
3078.383094,-0.000016
3078.865297,-0.000115
3079.347500,-0.000174
3079.829703,-0.000114
3080.311905,0.000017
3080.794108,0.000114
3081.276311,0.000102
3081.758514,-0.000020
3082.240717,-0.000113
3082.722920,-0.000112
3083.205123,-0.000089
3083.687326,-0.000104
3084.169528,-0.000126
3084.651731,-0.000089
3085.133934,0.000014
3085.616137,0.000034
3086.098340,-0.000032
3086.580543,-0.000038
3087.062746,-0.000091
3087.544948,-0.000141
3088.027151,-0.000075
3088.509354,-0.000043
3088.991557,0.000016
3089.473760,0.000106
3089.955963,0.000107
3090.438166,0.000121
3090.920368,0.000170
3091.402571,0.000162
3091.884774,0.000077
3092.366977,0.000025
3092.849180,0.000121
3093.331383,0.000202
3093.813586,0.000110
3094.295789,0.000058
3094.777991,0.000088
3095.260194,-0.000000
3095.742397,-0.000032
3096.224600,0.000083
3096.706803,0.000062
3097.189006,-0.000025
3097.671209,0.000079
3098.153411,0.000204
3098.635614,0.000148
3099.117817,0.000055
3099.600020,0.000024
3100.082223,0.000017
3100.564426,-0.000008
3101.046629,-0.000061
3101.528832,-0.000039
3102.011034,0.000047
3102.493237,0.000122
3102.975440,0.000252
3103.457643,0.000332
3103.939846,0.000215
3104.422049,0.000053
3104.904252,0.000045
3105.386454,0.000182
3105.868657,0.000240
3106.350860,0.000146
3106.833063,0.000080
3107.315266,0.000077
3107.797469,0.000155
3108.279672,0.000248
3108.761875,0.000196
3109.244077,0.000224
3109.726280,0.000358
3110.208483,0.000265
3110.690686,0.000089
3111.172889,0.000117
3111.655092,0.000217
3112.137295,0.000279
3112.619497,0.000394
3113.101700,0.000417
3113.583903,0.000322
3114.066106,0.000321
3114.548309,0.000331
3115.030512,0.000349
3115.512715,0.000354
3115.994918,0.000247
3116.477120,0.000143
3116.959323,-0.000036
3117.441526,-0.000144
3117.923729,0.000039
3118.405932,0.000200
3118.888135,0.000210
3119.370338,0.000218
3119.852540,0.000169
3120.334743,0.000079
3120.816946,0.000151
3121.299149,0.000227
3121.781352,0.000117
3122.263555,0.000106
3122.745758,0.000197
3123.227960,0.000207
3123.710163,0.000186
3124.192366,0.000169
3124.674569,0.000201
3125.156772,0.000246
3125.638975,0.000233
3126.121178,0.000179
3126.603381,0.000181
3127.085583,0.000203
3127.567786,0.000119
3128.049989,0.000067
3128.532192,0.000080
3129.014395,0.000116
3129.496598,0.000235
3129.978801,0.000267
3130.461003,0.000186
3130.943206,0.000149
3131.425409,0.000049
3131.907612,-0.000095
3132.389815,-0.000006
3132.872018,0.000193
3133.354221,0.000226
3133.836424,0.000208
3134.318626,0.000168
3134.800829,0.000084
3135.283032,0.000029
3135.765235,0.000010
3136.247438,0.000141
3136.729641,0.000299
3137.211844,0.000213
3137.694046,0.000090
3138.176249,0.000137
3138.658452,0.000132
3139.140655,0.000048
3139.622858,0.000108
3140.105061,0.000112
3140.587264,-0.000055
3141.069467,-0.000050
3141.551669,0.000074
3142.033872,0.000122
3142.516075,0.000112
3142.998278,-0.000029
3143.480481,-0.000090
3143.962684,0.000053
3144.444887,0.000134
3144.927089,0.000147
3145.409292,0.000192
3145.891495,0.000226
3146.373698,0.000268
3146.855901,0.000276
3147.338104,0.000157
3147.820307,0.000033
3148.302510,0.000025
3148.784712,0.000015
3149.266915,0.000056
3149.749118,0.000139
3150.231321,0.000029
3150.713524,-0.000091
3151.195727,-0.000021
3151.677930,0.000043
3152.160132,0.000024
3152.642335,0.000022
3153.124538,0.000115
3153.606741,0.000216
3154.088944,0.000221
3154.571147,0.000193
3155.053350,0.000105
3155.535552,0.000011
3156.017755,0.000061
3156.499958,0.000116
3156.982161,0.000017
3157.464364,-0.000057
3157.946567,0.000031
3158.428770,0.000135
3158.910973,0.000215
3159.393175,0.000243
3159.875378,0.000120
3160.357581,-0.000002
3160.839784,0.000011
3161.321987,0.000090
3161.804190,0.000148
3162.286393,0.000157
3162.768595,0.000133
3163.250798,0.000070
3163.733001,0.000043
3164.215204,0.000055
3164.697407,0.000053
3165.179610,0.000103
3165.661813,0.000139
3166.144016,0.000085
3166.626218,0.000078
3167.108421,0.000161
3167.590624,0.000183
3168.072827,0.000128
3168.555030,0.000094
3169.037233,0.000091
3169.519436,0.000088
3170.001638,0.000081
3170.483841,0.000158
3170.966044,0.000215
3171.448247,0.000122
3171.930450,0.000145
3172.412653,0.000246
3172.894856,0.000211
3173.377059,0.000182
3173.859261,0.000134
3174.341464,0.000084
3174.823667,0.000151
3175.305870,0.000145
3175.788073,0.000052
3176.270276,-0.000035
3176.752479,-0.000111
3177.234681,-0.000000
3177.716884,0.000240
3178.199087,0.000340
3178.681290,0.000300
3179.163493,0.000257
3179.645696,0.000247
3180.127899,0.000194
3180.610102,0.000124
3181.092304,0.000160
3181.574507,0.000189
3182.056710,0.000119
3182.538913,0.000117
3183.021116,0.000135
3183.503319,0.000067
3183.985522,0.000147
3184.467724,0.000233
3184.949927,0.000145
3185.432130,0.000147
3185.914333,0.000107
3186.396536,0.000053
3186.878739,0.000111
3187.360942,0.000034
3187.843144,0.000066
3188.325347,0.000181
3188.807550,0.000040
3189.289753,-0.000067
3189.771956,0.000049
3190.254159,0.000229
3190.736362,0.000233
3191.218565,0.000124
3191.700767,0.000162
3192.182970,0.000225
3192.665173,0.000291
3193.147376,0.000325
3193.629579,0.000184
3194.111782,0.000180
3194.593985,0.000333
3195.076187,0.000291
3195.558390,0.000274
3196.040593,0.000454
3196.522796,0.000474
3197.004999,0.000398
3197.487202,0.000387
3197.969405,0.000257
3198.451608,0.000162
3198.933810,0.000260
3199.416013,0.000395
3199.898216,0.000421
3200.380419,0.000373
3200.862622,0.000351
3201.344825,0.000261
3201.827028,0.000179
3202.309230,0.000209
3202.791433,0.000245
3203.273636,0.000222
3203.755839,0.000089
3204.238042,0.000026
3204.720245,0.000028
3205.202448,-0.000006
3205.684651,0.000129
3206.166853,0.000229
3206.649056,0.000056
3207.131259,-0.000011
3207.613462,0.000209
3208.095665,0.000319
3208.577868,0.000227
3209.060071,0.000183
3209.542273,0.000137
3210.024476,0.000047
3210.506679,-0.000019
3210.988882,0.000042
3211.471085,0.000244
3211.953288,0.000348
3212.435491,0.000307
3212.917693,0.000269
3213.399896,0.000290
3213.882099,0.000283
3214.364302,0.000243
3214.846505,0.000325
3215.328708,0.000409
3215.810911,0.000345
3216.293114,0.000247
3216.775316,0.000168
3217.257519,0.000159
3217.739722,0.000292
3218.221925,0.000389
3218.704128,0.000451
3219.186331,0.000512
3219.668534,0.000363
3220.150736,0.000269
3220.632939,0.000308
3221.115142,0.000240
3221.597345,0.000251
3222.079548,0.000220
3222.561751,0.000076
3223.043954,0.000135
3223.526157,0.000317
3224.008359,0.000418
3224.490562,0.000372
3224.972765,0.000240
3225.454968,0.000257
3225.937171,0.000384
3226.419374,0.000307
3226.901577,0.000142
3227.383779,0.000150
3227.865982,0.000171
3228.348185,0.000161
3228.830388,0.000200
3229.312591,0.000252
3229.794794,0.000296
3230.276997,0.000247
3230.759200,0.000153
3231.241402,0.000115
3231.723605,0.000060
3232.205808,0.000037
3232.688011,0.000155
3233.170214,0.000320
3233.652417,0.000355
3234.134620,0.000259
3234.616822,0.000224
3235.099025,0.000296
3235.581228,0.000349
3236.063431,0.000289
3236.545634,0.000190
3237.027837,0.000279
3237.510040,0.000407
3237.992243,0.000374
3238.474445,0.000386
3238.956648,0.000451
3239.438851,0.000473
3239.921054,0.000412
3240.403257,0.000275
3240.885460,0.000273
3241.367663,0.000337
3241.849865,0.000376
3242.332068,0.000439
3242.814271,0.000358
3243.296474,0.000233
3243.778677,0.000289
3244.260880,0.000376
3244.743083,0.000391
3245.225285,0.000406
3245.707488,0.000402
3246.189691,0.000409
3246.671894,0.000427
3247.154097,0.000263
3247.636300,0.000129
3248.118503,0.000371
3248.600706,0.000557
3249.082908,0.000546
3249.565111,0.000703
3250.047314,0.000663
3250.529517,0.000357
3251.011720,0.000271
3251.493923,0.000249
3251.976126,0.000191
3252.458328,0.000279
3252.940531,0.000176
3253.422734,-0.000149
3253.904937,-0.000116
3254.387140,0.000138
3254.869343,0.000266
3255.351546,0.000439
3255.833749,0.000487
3256.315951,0.000424
3256.798154,0.000509
3257.280357,0.000527
3257.762560,0.000415
3258.244763,0.000289
3258.726966,0.000233
3259.209169,0.000330
3259.691371,0.000380
3260.173574,0.000278
3260.655777,0.000223
3261.137980,0.000250
3261.620183,0.000292
3262.102386,0.000404
3262.584589,0.000460
3263.066792,0.000365
3263.548994,0.000262
3264.031197,0.000150
3264.513400,0.000113
3264.995603,0.000231
3265.477806,0.000305
3265.960009,0.000346
3266.442212,0.000418
3266.924414,0.000462
3267.406617,0.000475
3267.888820,0.000353
3268.371023,0.000216
3268.853226,0.000255
3269.335429,0.000287
3269.817632,0.000210
3270.299835,0.000149
3270.782037,0.000172
3271.264240,0.000187
3271.746443,0.000264
3272.228646,0.000537
3272.710849,0.000622
3273.193052,0.000398
3273.675255,0.000266
3274.157457,0.000277
3274.639660,0.000345
3275.121863,0.000421
3275.604066,0.000404
3276.086269,0.000341
3276.568472,0.000280
3277.050675,0.000153
3277.532877,0.000027
3278.015080,0.000073
3278.497283,0.000241
3278.979486,0.000425
3279.461689,0.000401
3279.943892,0.000195
3280.426095,0.000297
3280.908298,0.000437
3281.390500,0.000237
3281.872703,0.000122
3282.354906,0.000195
3282.837109,0.000251
3283.319312,0.000207
3283.801515,0.000152
3284.283718,0.000271
3284.765920,0.000332
3285.248123,0.000168
3285.730326,0.000064
3286.212529,0.000085
3286.694732,0.000140
3287.176935,0.000278
3287.659138,0.000347
3288.141341,0.000284
3288.623543,0.000228
3289.105746,0.000160
3289.587949,0.000143
3290.070152,0.000102
3290.552355,0.000047
3291.034558,0.000185
3291.516761,0.000180
3291.998963,-0.000025
3292.481166,-0.000004
3292.963369,0.000190
3293.445572,0.000323
3293.927775,0.000330
3294.409978,0.000223
3294.892181,0.000079
3295.374384,0.000054
3295.856586,0.000027
3296.338789,-0.000085
3296.820992,0.000015
3297.303195,0.000174
3297.785398,0.000132
3298.267601,0.000052
3298.749804,0.000058
3299.232006,0.000160
3299.714209,0.000214
3300.196412,0.000129
3300.678615,0.000060
3301.160818,0.000186
3301.643021,0.000295
3302.125224,0.000127
3302.607426,-0.000069
3303.089629,-0.000180
3303.571832,-0.000247
3304.054035,-0.000194
3304.536238,-0.000193
3305.018441,-0.000186
3305.500644,0.000018
3305.982847,0.000019
3306.465049,-0.000181
3306.947252,-0.000053
3307.429455,0.000041
3307.911658,-0.000066
3308.393861,0.000008
3308.876064,-0.000016
3309.358267,-0.000147
3309.840469,-0.000156
3310.322672,-0.000132
3310.804875,-0.000020
3311.287078,0.000115
3311.769281,0.000129
3312.251484,0.000063
3312.733687,-0.000021
3313.215890,-0.000067
3313.698092,0.000070
3314.180295,0.000196
3314.662498,0.000059
3315.144701,-0.000026
3315.626904,-0.000037
3316.109107,-0.000115
3316.591310,-0.000157
3317.073512,-0.000177
3317.555715,-0.000087
3318.037918,0.000013
3318.520121,0.000060
3319.002324,0.000177
3319.484527,0.000197
3319.966730,0.000020
3320.448933,-0.000107
3320.931135,-0.000012
3321.413338,0.000045
3321.895541,0.000004
3322.377744,-0.000016
3322.859947,-0.000093
3323.342150,-0.000057
3323.824353,-0.000023
3324.306555,-0.000145
3324.788758,-0.000148
3325.270961,-0.000027
3325.753164,0.000122
3326.235367,0.000208
3326.717570,0.000168
3327.199773,0.000134
3327.681976,0.000195
3328.164178,0.000328
3328.646381,0.000295
3329.128584,0.000049
3329.610787,-0.000077
3330.092990,-0.000028
3330.575193,0.000001
3331.057396,-0.000044
3331.539598,-0.000103
3332.021801,-0.000090
3332.504004,-0.000033
3332.986207,0.000013
3333.468410,0.000018
3333.950613,-0.000031
3334.432816,0.000023
3334.915018,0.000068
3335.397221,-0.000073
3335.879424,-0.000139
3336.361627,-0.000129
3336.843830,-0.000177
3337.326033,-0.000136
3337.808236,-0.000003
3338.290439,0.000097
3338.772641,0.000113
3339.254844,0.000124
3339.737047,0.000111
3340.219250,0.000017
3340.701453,0.000002
3341.183656,0.000121
3341.665859,0.000202
3342.148061,0.000050
3342.630264,-0.000122
3343.112467,0.000028
3343.594670,0.000119
3344.076873,-0.000007
3344.559076,0.000159
3345.041279,0.000340
3345.523482,0.000132
3346.005684,0.000055
3346.487887,0.000141
3346.970090,0.000055
3347.452293,0.000093
3347.934496,0.000263
3348.416699,0.000368
3348.898902,0.000482
3349.381104,0.000368
3349.863307,0.000091
3350.345510,0.000099
3350.827713,0.000244
3351.309916,0.000269
3351.792119,0.000240
3352.274322,0.000234
3352.756525,0.000317
3353.238727,0.000401
3353.720930,0.000318
3354.203133,0.000198
3354.685336,0.000291
3355.167539,0.000293
3355.649742,0.000197
3356.131945,0.000496
3356.614147,0.000647
3357.096350,0.000385
3357.578553,0.000351
3358.060756,0.000503
3358.542959,0.000582
3359.025162,0.000478
3359.507365,0.000399
3359.989568,0.000573
3360.471770,0.000581
3360.953973,0.000400
3361.436176,0.000396
3361.918379,0.000546
3362.400582,0.000630
3362.882785,0.000619
3363.364988,0.000615
3363.847190,0.000466
3364.329393,0.000273
3364.811596,0.000254
3365.293799,0.000292
3365.776002,0.000352
3366.258205,0.000420
3366.740408,0.000506
3367.222610,0.000566
3367.704813,0.000549
3368.187016,0.000518
3368.669219,0.000450
3369.151422,0.000557
3369.633625,0.000773
3370.115828,0.000694
3370.598031,0.000670
3371.080233,0.000885
3371.562436,0.000896
3372.044639,0.000799
3372.526842,0.000754
3373.009045,0.000586
3373.491248,0.000345
3373.973451,0.000193
3374.455653,0.000208
3374.937856,0.000270
3375.420059,0.000253
3375.902262,0.000332
3376.384465,0.000505
3376.866668,0.000471
3377.348871,0.000328
3377.831074,0.000323
3378.313276,0.000258
3378.795479,0.000240
3379.277682,0.000430
3379.759885,0.000403
3380.242088,0.000267
3380.724291,0.000374
3381.206494,0.000558
3381.688696,0.000804
3382.170899,0.000959
3382.653102,0.000823
3383.135305,0.000718
3383.617508,0.000808
3384.099711,0.000903
3384.581914,0.000938
3385.064117,0.000928
3385.546319,0.000814
3386.028522,0.000683
3386.510725,0.000731
3386.992928,0.000823
3387.475131,0.000870
3387.957334,0.000913
3388.439537,0.000811
3388.921739,0.000775
3389.403942,0.000768
3389.886145,0.000554
3390.368348,0.000584
3390.850551,0.000802
3391.332754,0.000804
3391.814957,0.000831
3392.297160,0.001001
3392.779362,0.001004
3393.261565,0.000727
3393.743768,0.000717
3394.225971,0.001062
3394.708174,0.001052
3395.190377,0.000790
3395.672580,0.000771
3396.154782,0.000861
3396.636985,0.000824
3397.119188,0.000677
3397.601391,0.000693
3398.083594,0.000855
3398.565797,0.000819
3399.048000,0.000735
3399.530202,0.000772
3400.012405,0.000719
3400.494608,0.000609
3400.976811,0.000641
3401.459014,0.000779
3401.941217,0.000766
3402.423420,0.000661
3402.905623,0.000758
3403.387825,0.000890
3403.870028,0.000784
3404.352231,0.000604
3404.834434,0.000720
3405.316637,0.000974
3405.798840,0.000999
3406.281043,0.000922
3406.763245,0.000823
3407.245448,0.000776
3407.727651,0.000731
3408.209854,0.000544
3408.692057,0.000549
3409.174260,0.000725
3409.656463,0.000807
3410.138666,0.000817
3410.620868,0.000773
3411.103071,0.000793
3411.585274,0.000681
3412.067477,0.000354
3412.549680,0.000250
3413.031883,0.000369
3413.514086,0.000562
3413.996288,0.000776
3414.478491,0.000762
3414.960694,0.000651
3415.442897,0.000661
3415.925100,0.000604
3416.407303,0.000421
3416.889506,0.000455
3417.371709,0.000822
3417.853911,0.001004
3418.336114,0.000825
3418.818317,0.000655
3419.300520,0.000569
3419.782723,0.000597
3420.264926,0.000779
3420.747129,0.000802
3421.229331,0.000562
3421.711534,0.000327
3422.193737,0.000293
3422.675940,0.000505
3423.158143,0.000629
3423.640346,0.000438
3424.122549,0.000309
3424.604751,0.000243
3425.086954,0.000110
3425.569157,0.000245
3426.051360,0.000501
3426.533563,0.000485
3427.015766,0.000385
3427.497969,0.000454
3427.980172,0.000490
3428.462374,0.000320
3428.944577,0.000211
3429.426780,0.000332
3429.908983,0.000455
3430.391186,0.000432
3430.873389,0.000373
3431.355592,0.000405
3431.837794,0.000482
3432.319997,0.000469
3432.802200,0.000435
3433.284403,0.000539
3433.766606,0.000681
3434.248809,0.000662
3434.731012,0.000537
3435.213215,0.000488
3435.695417,0.000522
3436.177620,0.000610
3436.659823,0.000610
3437.142026,0.000488
3437.624229,0.000566
3438.106432,0.000741
3438.588635,0.000686
3439.070837,0.000572
3439.553040,0.000602
3440.035243,0.000633
3440.517446,0.000518
3440.999649,0.000446
3441.481852,0.000521
3441.964055,0.000571
3442.446258,0.000556
3442.928460,0.000545
3443.410663,0.000566
3443.892866,0.000579
3444.375069,0.000562
3444.857272,0.000565
3445.339475,0.000656
3445.821678,0.000757
3446.303880,0.000773
3446.786083,0.000853
3447.268286,0.000990
3447.750489,0.001055
3448.232692,0.000970
3448.714895,0.000650
3449.197098,0.000426
3449.679301,0.000432
3450.161503,0.000307
3450.643706,0.000135
3451.125909,0.000167
3451.608112,0.000189
3452.090315,0.000139
3452.572518,0.000318
3453.054721,0.000504
3453.536923,0.000535
3454.019126,0.000677
3454.501329,0.000703
3454.983532,0.000553
3455.465735,0.000490
3455.947938,0.000572
3456.430141,0.000673
3456.912343,0.000648
3457.394546,0.000723
3457.876749,0.000775
3458.358952,0.000703
3458.841155,0.000705
3459.323358,0.000577
3459.805561,0.000429
3460.287764,0.000343
3460.769966,0.000350
3461.252169,0.000620
3461.734372,0.000774
3462.216575,0.000706
3462.698778,0.000499
3463.180981,0.000215
3463.663184,0.000104
3464.145386,0.000012
3464.627589,-0.000014
3465.109792,0.000155
3465.591995,0.000273
3466.074198,0.000408
3466.556401,0.000443
3467.038604,0.000253
3467.520807,0.000273
3468.003009,0.000370
3468.485212,0.000348
3468.967415,0.000370
3469.449618,0.000207
3469.931821,0.000160
3470.414024,0.000488
3470.896227,0.000596
3471.378429,0.000468
3471.860632,0.000485
3472.342835,0.000448
3472.825038,0.000256
3473.307241,0.000257
3473.789444,0.000360
3474.271647,0.000311
3474.753850,0.000330
3475.236052,0.000260
3475.718255,-0.000036
3476.200458,-0.000164
3476.682661,-0.000163
3477.164864,-0.000129
3477.647067,-0.000017
3478.129270,-0.000052
3478.611472,-0.000098
3479.093675,-0.000035
3479.575878,0.000028
3480.058081,0.000188
3480.540284,0.000345
3481.022487,0.000404
3481.504690,0.000315
3481.986893,0.000101
3482.469095,0.000083
3482.951298,0.000228
3483.433501,0.000267
3483.915704,0.000204
3484.397907,0.000265
3484.880110,0.000455
3485.362313,0.000431
3485.844515,0.000168
3486.326718,-0.000007
3486.808921,0.000054
3487.291124,0.000019
3487.773327,-0.000198
3488.255530,-0.000141
3488.737733,0.000032
3489.219935,0.000039
3489.702138,0.000086
3490.184341,0.000117
3490.666544,0.000060
3491.148747,0.000072
3491.630950,0.000159
3492.113153,0.000138
3492.595356,0.000070
3493.077558,0.000156
3493.559761,0.000240
3494.041964,0.000241
3494.524167,0.000243
3495.006370,0.000142
3495.488573,-0.000032
3495.970776,0.000002
3496.452978,0.000186
3496.935181,0.000122
3497.417384,-0.000051
3497.899587,0.000018
3498.381790,0.000228
3498.863993,0.000307
3499.346196,0.000206
3499.828399,0.000199
3500.310601,0.000159
3500.792804,0.000024
3501.275007,0.000102
3501.757210,0.000005
3502.239413,-0.000256
3502.721616,-0.000209
3503.203819,-0.000158
3503.686021,-0.000221
3504.168224,-0.000073
3504.650427,0.000242
3505.132630,0.000335
3505.614833,0.000212
3506.097036,0.000119
3506.579239,0.000033
3507.061442,-0.000071
3507.543644,-0.000187
3508.025847,-0.000181
3508.508050,-0.000044
3508.990253,0.000116
3509.472456,0.000177
3509.954659,0.000012
3510.436862,0.000006
3510.919064,0.000041
3511.401267,-0.000112
3511.883470,0.000026
3512.365673,0.000201
3512.847876,0.000061
3513.330079,-0.000110
3513.812282,-0.000234
3514.294484,-0.000254
3514.776687,-0.000033
3515.258890,0.000225
3515.741093,0.000218
3516.223296,0.000147
3516.705499,0.000163
3517.187702,0.000124
3517.669905,0.000090
3518.152107,0.000014
3518.634310,-0.000040
3519.116513,0.000075
3519.598716,0.000044
3520.080919,-0.000120
3520.563122,0.000058
3521.045325,0.000152
3521.527527,-0.000248
3522.009730,-0.000340
3522.491933,-0.000053
3522.974136,-0.000033
3523.456339,-0.000162
3523.938542,-0.000308
3524.420745,-0.000424
3524.902948,-0.000336
3525.385150,-0.000067
3525.867353,0.000146
3526.349556,0.000005
3526.831759,-0.000188
3527.313962,0.000027
3527.796165,0.000252
3528.278368,0.000119
3528.760570,-0.000060
3529.242773,-0.000243
3529.724976,-0.000348
3530.207179,-0.000052
3530.689382,0.000262
3531.171585,0.000164
3531.653788,-0.000139
3532.135991,-0.000216
3532.618193,-0.000035
3533.100396,0.000009
3533.582599,0.000006
3534.064802,0.000107
3534.547005,0.000082
3535.029208,-0.000021
3535.511411,-0.000047
3535.993613,0.000054
3536.475816,0.000111
3536.958019,0.000014
3537.440222,0.000102
3537.922425,0.000319
3538.404628,0.000298
3538.886831,0.000221
3539.369034,0.000152
3539.851236,-0.000049
3540.333439,-0.000091
3540.815642,0.000047
3541.297845,0.000105
3541.780048,0.000101
3542.262251,0.000182
3542.744454,0.000335
3543.226656,0.000286
3543.708859,0.000192
3544.191062,0.000321
3544.673265,0.000425
3545.155468,0.000436
3545.637671,0.000383
3546.119874,0.000329
3546.602076,0.000335
3547.084279,0.000228
3547.566482,0.000158
3548.048685,0.000264
3548.530888,0.000343
3549.013091,0.000269
3549.495294,0.000178
3549.977497,0.000293
3550.459699,0.000453
3550.941902,0.000478
3551.424105,0.000488
3551.906308,0.000620
3552.388511,0.000942
3552.870714,0.001107
3553.352917,0.000950
3553.835119,0.000945
3554.317322,0.001020
3554.799525,0.000915
3555.281728,0.000931
3555.763931,0.001042
3556.246134,0.001015
3556.728337,0.000965
3557.210540,0.001044
3557.692742,0.001216
3558.174945,0.001346
3558.657148,0.001433
3559.139351,0.001472
3559.621554,0.001527
3560.103757,0.001716
3560.585960,0.001826
3561.068162,0.001772
3561.550365,0.001756
3562.032568,0.001909
3562.514771,0.002135
3562.996974,0.002181
3563.479177,0.002149
3563.961380,0.002183
3564.443583,0.002226
3564.925785,0.002371
3565.407988,0.002491
3565.890191,0.002475
3566.372394,0.002612
3566.854597,0.002823
3567.336800,0.002767
3567.819003,0.002696
3568.301205,0.002826
3568.783408,0.002893
3569.265611,0.002806
3569.747814,0.002832
3570.230017,0.003055
3570.712220,0.003288
3571.194423,0.003613
3571.676626,0.004082
3572.158828,0.004308
3572.641031,0.004168
3573.123234,0.003863
3573.605437,0.003625
3574.087640,0.003667
3574.569843,0.003942
3575.052046,0.004244
3575.534248,0.004384
3576.016451,0.004328
3576.498654,0.004146
3576.980857,0.003956
3577.463060,0.003986
3577.945263,0.004132
3578.427466,0.004044
3578.909668,0.003868
3579.391871,0.003850
3579.874074,0.003798
3580.356277,0.003736
3580.838480,0.003876
3581.320683,0.003807
3581.802886,0.003280
3582.285089,0.002715
3582.767291,0.002375
3583.249494,0.002245
3583.731697,0.002209
3584.213900,0.002190
3584.696103,0.002155
3585.178306,0.002045
3585.660509,0.002001
3586.142711,0.002080
3586.624914,0.002218
3587.107117,0.002362
3587.589320,0.002474
3588.071523,0.002846
3588.553726,0.003497
3589.035929,0.004100
3589.518132,0.004628
3590.000334,0.005329
3590.482537,0.005744
3590.964740,0.004764
3591.446943,0.002888
3591.929146,0.001743
3592.411349,0.001496
3592.893552,0.001478
3593.375754,0.001402
3593.857957,0.001434
3594.340160,0.001802
3594.822363,0.002143
3595.304566,0.002084
3595.786769,0.001986
3596.268972,0.002213
3596.751175,0.002622
3597.233377,0.003027
3597.715580,0.003237
3598.197783,0.003272
3598.679986,0.003384
3599.162189,0.003619
3599.644392,0.003817
3600.126595,0.003768
3600.608797,0.003668
3601.091000,0.003871
3601.573203,0.004163
3602.055406,0.004253
3602.537609,0.004227
3603.019812,0.004242
3603.502015,0.004291
3603.984217,0.004400
3604.466420,0.004575
3604.948623,0.004562
3605.430826,0.004326
3605.913029,0.004111
3606.395232,0.004066
3606.877435,0.004062
3607.359638,0.003935
3607.841840,0.003867
3608.324043,0.003863
3608.806246,0.003877
3609.288449,0.003771
3609.770652,0.003360
3610.252855,0.003286
3610.735058,0.003509
3611.217260,0.003424
3611.699463,0.003206
3612.181666,0.003058
3612.663869,0.002868
3613.146072,0.002566
3613.628275,0.002436
3614.110478,0.002563
3614.592681,0.002626
3615.074883,0.002469
3615.557086,0.002092
3616.039289,0.001900
3616.521492,0.002034
3617.003695,0.002080
3617.485898,0.001919
3617.968101,0.001521
3618.450303,0.001278
3618.932506,0.001651
3619.414709,0.002061
3619.896912,0.001952
3620.379115,0.001533
3620.861318,0.001266
3621.343521,0.001142
3621.825724,0.001148
3622.307926,0.001288
3622.790129,0.001325
3623.272332,0.001281
3623.754535,0.001211
3624.236738,0.001135
3624.718941,0.001197
3625.201144,0.001154
3625.683346,0.000814
3626.165549,0.000512
3626.647752,0.000580
3627.129955,0.000801
3627.612158,0.000777
3628.094361,0.000655
3628.576564,0.000480
3629.058767,0.000205
3629.540969,0.000083
3630.023172,-0.000054
3630.505375,0.000002
3630.987578,0.000272
3631.469781,0.000265
3631.951984,0.000177
3632.434187,0.000281
3632.916389,0.000433
3633.398592,0.000500
3633.880795,0.000424
3634.362998,0.000370
3634.845201,0.000503
3635.327404,0.000648
3635.809607,0.000576
3636.291809,0.000461
3636.774012,0.000479
3637.256215,0.000464
3637.738418,0.000459
3638.220621,0.000452
3638.702824,0.000323
3639.185027,0.000302
3639.667230,0.000453
3640.149432,0.000531
3640.631635,0.000469
3641.113838,0.000402
3641.596041,0.000417
3642.078244,0.000442
3642.560447,0.000426
3643.042650,0.000473
3643.524852,0.000462
3644.007055,0.000315
3644.489258,0.000344
3644.971461,0.000485
3645.453664,0.000459
3645.935867,0.000343
3646.418070,0.000213
3646.900273,0.000020
3647.382475,-0.000130
3647.864678,-0.000042
3648.346881,0.000067
3648.829084,0.000117
3649.311287,0.000099
3649.793490,-0.000244
3650.275693,-0.000333
3650.757895,-0.000081
3651.240098,-0.000106
3651.722301,-0.000229
3652.204504,-0.000040
3652.686707,0.000332
3653.168910,0.000471
3653.651113,0.000387
3654.133316,0.000383
3654.615518,0.000444
3655.097721,0.000510
3655.579924,0.000431
3656.062127,0.000191
3656.544330,-0.000132
3657.026533,-0.000354
3657.508736,-0.000118
3657.990938,0.000125
3658.473141,0.000155
3658.955344,0.000336
3659.437547,0.000431
3659.919750,0.000370
3660.401953,0.000454
3660.884156,0.000440
3661.366359,0.000334
3661.848561,0.000351
3662.330764,0.000340
3662.812967,0.000442
3663.295170,0.000656
3663.777373,0.000626
3664.259576,0.000596
3664.741779,0.000718
3665.223981,0.000586
3665.706184,0.000315
3666.188387,0.000233
3666.670590,0.000254
3667.152793,0.000240
3667.634996,0.000121
3668.117199,0.000047
3668.599401,0.000058
3669.081604,0.000040
3669.563807,0.000143
3670.046010,0.000213
3670.528213,0.000170
3671.010416,0.000060
3671.492619,-0.000255
3671.974822,-0.000307
3672.457024,-0.000122
3672.939227,-0.000053
3673.421430,0.000033
3673.903633,0.000049
3674.385836,-0.000063
3674.868039,-0.000169
3675.350242,-0.000333
3675.832444,-0.000368
3676.314647,-0.000364
3676.796850,-0.000429
3677.279053,-0.000189
3677.761256,0.000146
3678.243459,0.000255
3678.725662,0.000243
3679.207865,0.000203
3679.690067,0.000169
3680.172270,0.000212
3680.654473,0.000340
3681.136676,0.000419
3681.618879,0.000379
3682.101082,0.000376
3682.583285,0.000539
3683.065487,0.000769
3683.547690,0.000753
3684.029893,0.000639
3684.512096,0.000632
3684.994299,0.000420
3685.476502,0.000274
3685.958705,0.000405
3686.440908,0.000464
3686.923110,0.000432
3687.405313,0.000273
3687.887516,0.000183
3688.369719,0.000247
3688.851922,-0.000042
3689.334125,-0.000257
3689.816328,0.000129
3690.298530,0.000406
3690.780733,0.000311
3691.262936,0.000197
3691.745139,0.000139
3692.227342,0.000223
3692.709545,0.000319
3693.191748,0.000221
3693.673951,0.000313
3694.156153,0.000470
3694.638356,0.000400
3695.120559,0.000450
3695.602762,0.000493
3696.084965,0.000441
3696.567168,0.000517
3697.049371,0.000532
3697.531573,0.000483
3698.013776,0.000444
3698.495979,0.000368
3698.978182,0.000318
3699.460385,0.000181
3699.942588,0.000119
3700.424791,0.000281
3700.906993,0.000439
3701.389196,0.000466
3701.871399,0.000180
3702.353602,-0.000164
3702.835805,-0.000132
3703.318008,0.000055
3703.800211,0.000275
3704.282414,0.000437
3704.764616,0.000532
3705.246819,0.000544
3705.729022,0.000352
3706.211225,0.000225
3706.693428,0.000205
3707.175631,0.000215
3707.657834,0.000308
3708.140036,0.000257
3708.622239,0.000148
3709.104442,0.000088
3709.586645,-0.000137
3710.068848,-0.000348
3710.551051,-0.000281
3711.033254,-0.000037
3711.515457,0.000202
3711.997659,0.000204
3712.479862,-0.000086
3712.962065,-0.000364
3713.444268,-0.000249
3713.926471,0.000100
3714.408674,0.000284
3714.890877,0.000275
3715.373079,0.000257
3715.855282,0.000259
3716.337485,0.000338
3716.819688,0.000429
3717.301891,0.000410
3717.784094,0.000366
3718.266297,0.000318
3718.748500,0.000305
3719.230702,0.000359
3719.712905,0.000307
3720.195108,0.000239
3720.677311,0.000279
3721.159514,0.000301
3721.641717,0.000381
3722.123920,0.000404
3722.606122,0.000188
3723.088325,0.000069
3723.570528,0.000190
3724.052731,0.000265
3724.534934,0.000183
3725.017137,0.000105
3725.499340,0.000136
3725.981542,0.000181
3726.463745,0.000161
3726.945948,0.000029
3727.428151,-0.000150
3727.910354,-0.000224
3728.392557,-0.000176
3728.874760,0.000086
3729.356963,0.000366
3729.839165,0.000241
3730.321368,0.000127
3730.803571,0.000317
3731.285774,0.000237
3731.767977,0.000043
3732.250180,-0.000081
3732.732383,-0.000456
3733.214585,-0.000551
3733.696788,-0.000317
3734.178991,-0.000067
3734.661194,0.000165
3735.143397,0.000076
3735.625600,-0.000187
3736.107803,-0.000313
3736.590006,-0.000255
3737.072208,-0.000064
3737.554411,-0.000100
3738.036614,-0.000131
3738.518817,0.000041
3739.001020,0.000137
3739.483223,0.000256
3739.965426,0.000411
3740.447628,0.000414
3740.929831,0.000298
3741.412034,0.000113
3741.894237,-0.000064
3742.376440,-0.000044
3742.858643,0.000197
3743.340846,0.000453
3743.823049,0.000522
3744.305251,0.000347
3744.787454,-0.000004
3745.269657,-0.000539
3745.751860,-0.000714
3746.234063,-0.000237
3746.716266,0.000213
3747.198469,0.000361
3747.680671,0.000411
3748.162874,0.000307
3748.645077,0.000201
3749.127280,0.000268
3749.609483,0.000211
3750.091686,-0.000253
3750.573889,-0.000326
3751.056092,0.000060
3751.538294,0.000094
3752.020497,-0.000017
3752.502700,0.000011
3752.984903,-0.000205
3753.467106,-0.000266
3753.949309,-0.000052
3754.431512,0.000091
3754.913714,0.000204
3755.395917,0.000450
3755.878120,0.000620
3756.360323,0.000541
3756.842526,0.000306
3757.324729,0.000071
3757.806932,0.000202
3758.289134,0.000609
3758.771337,0.000675
3759.253540,0.000427
3759.735743,0.000267
3760.217946,0.000148
3760.700149,0.000174
3761.182352,0.000298
3761.664555,0.000236
3762.146757,0.000219
3762.628960,0.000307
3763.111163,0.000307
3763.593366,0.000278
3764.075569,0.000260
3764.557772,0.000329
3765.039975,0.000464
3765.522177,0.000509
3766.004380,0.000342
3766.486583,0.000189
3766.968786,0.000437
3767.450989,0.000584
3767.933192,0.000401
3768.415395,0.000307
3768.897598,0.000170
3769.379800,0.000077
3769.862003,0.000113
3770.344206,-0.000094
3770.826409,-0.000124
3771.308612,0.000163
3771.790815,0.000253
3772.273018,0.000180
3772.755220,0.000171
3773.237423,0.000300
3773.719626,0.000405
3774.201829,0.000340
3774.684032,0.000373
3775.166235,0.000551
3775.648438,0.000551
3776.130641,0.000430
3776.612843,0.000449
3777.095046,0.000476
3777.577249,0.000322
3778.059452,0.000170
3778.541655,0.000254
3779.023858,0.000431
3779.506061,0.000403
3779.988263,0.000268
3780.470466,0.000198
3780.952669,0.000110
3781.434872,0.000069
3781.917075,0.000122
3782.399278,0.000172
3782.881481,0.000248
3783.363684,0.000337
3783.845886,0.000298
3784.328089,0.000243
3784.810292,0.000373
3785.292495,0.000392
3785.774698,0.000183
3786.256901,0.000202
3786.739104,0.000360
3787.221306,0.000342
3787.703509,0.000320
3788.185712,0.000350
3788.667915,0.000375
3789.150118,0.000409
3789.632321,0.000366
3790.114524,0.000269
3790.596726,0.000226
3791.078929,0.000266
3791.561132,0.000319
3792.043335,0.000350
3792.525538,0.000424
3793.007741,0.000450
3793.489944,0.000391
3793.972147,0.000431
3794.454349,0.000470
3794.936552,0.000331
3795.418755,0.000223
3795.900958,0.000225
3796.383161,0.000130
3796.865364,-0.000060
3797.347567,-0.000070
3797.829769,0.000142
3798.311972,0.000307
3798.794175,0.000341
3799.276378,0.000366
3799.758581,0.000436
3800.240784,0.000466
3800.722987,0.000398
3801.205190,0.000253
3801.687392,-0.000134
3802.169595,-0.000463
3802.651798,-0.000293
3803.134001,-0.000059
3803.616204,0.000062
3804.098407,0.000131
3804.580610,0.000202
3805.062812,0.000367
3805.545015,0.000500
3806.027218,0.000516
3806.509421,0.000392
3806.991624,0.000165
3807.473827,0.000051
3807.956030,0.000052
3808.438233,0.000071
3808.920435,0.000228
3809.402638,0.000367
3809.884841,0.000302
3810.367044,0.000293
3810.849247,0.000353
3811.331450,0.000323
3811.813653,0.000252
3812.295855,0.000173
3812.778058,0.000208
3813.260261,0.000202
3813.742464,0.000069
3814.224667,0.000121
3814.706870,0.000240
3815.189073,0.000301
3815.671275,0.000415
3816.153478,0.000357
3816.635681,-0.000037
3817.117884,-0.000232
3817.600087,0.000002
3818.082290,0.000091
3818.564493,-0.000203
3819.046696,-0.000423
3819.528898,-0.000302
3820.011101,-0.000047
3820.493304,0.000050
3820.975507,-0.000159
3821.457710,-0.000403
3821.939913,-0.000380
3822.422116,-0.000378
3822.904318,-0.000329
3823.386521,-0.000083
3823.868724,0.000006
3824.350927,0.000006
3824.833130,0.000170
3825.315333,0.000370
3825.797536,0.000405
3826.279739,0.000249
3826.761941,0.000124
3827.244144,0.000106
3827.726347,0.000158
3828.208550,0.000250
3828.690753,0.000356
3829.172956,0.000391
3829.655159,0.000187
3830.137361,0.000086
3830.619564,0.000250
3831.101767,0.000222
3831.583970,0.000006
3832.066173,-0.000154
3832.548376,-0.000214
3833.030579,-0.000124
3833.512782,0.000003
3833.994984,0.000162
3834.477187,0.000373
3834.959390,0.000292
3835.441593,-0.000018
3835.923796,-0.000083
3836.405999,-0.000025
3836.888202,0.000057
3837.370404,0.000224
3837.852607,0.000201
3838.334810,-0.000220
3838.817013,-0.000490
3839.299216,-0.000165
3839.781419,0.000190
3840.263622,0.000141
3840.745825,-0.000103
3841.228027,-0.000220
3841.710230,-0.000170
3842.192433,-0.000088
3842.674636,0.000026
3843.156839,0.000123
3843.639042,0.000073
3844.121245,0.000069
3844.603447,0.000181
3845.085650,0.000251
3845.567853,0.000371
3846.050056,0.000441
3846.532259,0.000381
3847.014462,0.000374
3847.496665,0.000274
3847.978867,0.000133
3848.461070,0.000170
3848.943273,0.000235
3849.425476,0.000305
3849.907679,0.000318
3850.389882,0.000289
3850.872085,0.000339
3851.354288,0.000244
3851.836490,0.000085
3852.318693,0.000060
3852.800896,0.000003
3853.283099,-0.000060
3853.765302,0.000017
3854.247505,0.000008
3854.729708,-0.000418
3855.211910,-0.000681
3855.694113,-0.000436
3856.176316,-0.000114
3856.658519,0.000117
3857.140722,0.000244
3857.622925,0.000211
3858.105128,0.000175
3858.587331,0.000289
3859.069533,0.000410
3859.551736,0.000386
3860.033939,0.000310
3860.516142,0.000365
3860.998345,0.000413
3861.480548,0.000333
3861.962751,0.000148
3862.444953,-0.000149
3862.927156,-0.000254
3863.409359,-0.000120
3863.891562,0.000071
3864.373765,0.000181
3864.855968,0.000140
3865.338171,0.000070
3865.820374,-0.000187
3866.302576,-0.000347
3866.784779,-0.000117
3867.266982,0.000112
3867.749185,0.000131
3868.231388,0.000035
3868.713591,0.000092
3869.195794,0.000119
3869.677996,-0.000001
3870.160199,0.000136
3870.642402,0.000023
3871.124605,-0.000266
3871.606808,-0.000173
3872.089011,-0.000170
3872.571214,-0.000149
3873.053417,0.000114
3873.535619,0.000231
3874.017822,0.000176
3874.500025,0.000094
3874.982228,0.000069
3875.464431,0.000267
3875.946634,0.000460
3876.428837,0.000406
3876.911039,0.000323
3877.393242,0.000371
3877.875445,0.000482
3878.357648,0.000510
3878.839851,0.000399
3879.322054,0.000361
3879.804257,0.000325
3880.286459,-0.000009
3880.768662,-0.000409
3881.250865,-0.000416
3881.733068,-0.000211
3882.215271,-0.000152
3882.697474,-0.000124
3883.179677,-0.000021
3883.661880,0.000002
3884.144082,-0.000015
3884.626285,0.000029
3885.108488,0.000121
3885.590691,0.000220
3886.072894,0.000086
3886.555097,-0.000198
3887.037300,-0.000254
3887.519502,-0.000185
3888.001705,-0.000114
3888.483908,-0.000096
3888.966111,-0.000098
3889.448314,-0.000064
3889.930517,-0.000029
3890.412720,0.000190
3890.894923,0.000409
3891.377125,0.000270
3891.859328,0.000048
3892.341531,0.000036
3892.823734,0.000093
3893.305937,0.000041
3893.788140,0.000046
3894.270343,0.000164
3894.752545,0.000075
3895.234748,0.000018
3895.716951,0.000127
3896.199154,0.000036
3896.681357,-0.000055
3897.163560,-0.000087
3897.645763,-0.000166
3898.127966,-0.000028
3898.610168,0.000104
3899.092371,0.000015
3899.574574,-0.000094
3900.056777,-0.000165
3900.538980,-0.000107
3901.021183,0.000077
3901.503386,0.000205
3901.985588,0.000055
3902.467791,-0.000153
3902.949994,-0.000048
3903.432197,0.000043
3903.914400,0.000002
3904.396603,-0.000113
3904.878806,-0.000292
3905.361008,-0.000245
3905.843211,-0.000185
3906.325414,-0.000226
3906.807617,-0.000139
3907.289820,-0.000037
3907.772023,0.000065
3908.254226,0.000123
3908.736429,0.000005
3909.218631,-0.000058
3909.700834,0.000052
3910.183037,0.000187
3910.665240,0.000248
3911.147443,0.000272
3911.629646,0.000363
3912.111849,0.000351
3912.594051,0.000132
3913.076254,0.000013
3913.558457,0.000049
3914.040660,0.000069
3914.522863,0.000012
3915.005066,-0.000187
3915.487269,-0.000184
3915.969472,0.000170
3916.451674,0.000249
3916.933877,0.000074
3917.416080,0.000118
3917.898283,0.000129
3918.380486,0.000064
3918.862689,0.000034
3919.344892,-0.000062
3919.827094,-0.000072
3920.309297,-0.000116
3920.791500,-0.000162
3921.273703,0.000031
3921.755906,0.000110
3922.238109,-0.000042
3922.720312,-0.000091
3923.202515,0.000023
3923.684717,0.000043
3924.166920,-0.000020
3924.649123,0.000079
3925.131326,0.000138
3925.613529,0.000067
3926.095732,0.000129
3926.577935,0.000208
3927.060137,0.000166
3927.542340,0.000088
3928.024543,-0.000082
3928.506746,-0.000302
3928.988949,-0.000348
3929.471152,-0.000224
3929.953355,-0.000115
3930.435558,-0.000087
3930.917760,0.000023
3931.399963,0.000211
3931.882166,0.000250
3932.364369,0.000139
3932.846572,-0.000046
3933.328775,-0.000129
3933.810978,-0.000068
3934.293180,-0.000051
3934.775383,-0.000019
3935.257586,-0.000006
3935.739789,0.000020
3936.221992,0.000153
3936.704195,0.000189
3937.186398,0.000154
3937.668600,0.000178
3938.150803,0.000213
3938.633006,0.000067
3939.115209,-0.000222
3939.597412,-0.000251
3940.079615,-0.000109
3940.561818,-0.000028
3941.044021,0.000075
3941.526223,0.000105
3942.008426,0.000101
3942.490629,0.000113
3942.972832,0.000061
3943.455035,0.000047
3943.937238,-0.000043
3944.419441,-0.000172
3944.901643,-0.000044
3945.383846,0.000141
3945.866049,0.000127
3946.348252,0.000009
3946.830455,-0.000090
3947.312658,-0.000025
3947.794861,0.000137
3948.277064,0.000013
3948.759266,-0.000240
3949.241469,-0.000170
3949.723672,-0.000092
3950.205875,-0.000121
3950.688078,-0.000085
3951.170281,-0.000218
3951.652484,-0.000231
3952.134686,-0.000012
3952.616889,0.000011
3953.099092,-0.000101
3953.581295,-0.000184
3954.063498,-0.000124
3954.545701,-0.000020
3955.027904,0.000008
3955.510107,0.000119
3955.992309,0.000059
3956.474512,-0.000128
3956.956715,-0.000068
3957.438918,0.000010
3957.921121,-0.000002
3958.403324,0.000002
3958.885527,-0.000061
3959.367729,-0.000159
3959.849932,-0.000063
3960.332135,0.000161
3960.814338,0.000081
3961.296541,-0.000144
3961.778744,-0.000077
3962.260947,0.000059
3962.743150,0.000013
3963.225352,-0.000065
3963.707555,-0.000094
3964.189758,-0.000131
3964.671961,-0.000008
3965.154164,0.000285
3965.636367,0.000347
3966.118570,0.000186
3966.600772,0.000148
3967.082975,0.000155
3967.565178,-0.000071
3968.047381,-0.000239
3968.529584,-0.000037
3969.011787,0.000108
3969.493990,0.000056
3969.976192,0.000078
3970.458395,-0.000057
3970.940598,-0.000348
3971.422801,-0.000290
3971.905004,-0.000018
3972.387207,-0.000047
3972.869410,-0.000122
3973.351613,0.000033
3973.833815,0.000093
3974.316018,-0.000053
3974.798221,-0.000233
3975.280424,-0.000265
3975.762627,-0.000163
3976.244830,-0.000061
3976.727033,0.000021
3977.209235,-0.000054
3977.691438,-0.000210
3978.173641,-0.000232
3978.655844,-0.000181
3979.138047,-0.000175
3979.620250,-0.000268
3980.102453,-0.000196
3980.584656,0.000088
3981.066858,0.000179
3981.549061,0.000170
3982.031264,0.000204
3982.513467,0.000013
3982.995670,-0.000189
3983.477873,-0.000011
3983.960076,0.000206
3984.442278,0.000169
3984.924481,0.000038
3985.406684,-0.000134
3985.888887,-0.000123
3986.371090,0.000116
3986.853293,0.000210
3987.335496,0.000098
3987.817699,-0.000022
3988.299901,-0.000016
3988.782104,0.000039
3989.264307,0.000052
3989.746510,0.000004
3990.228713,-0.000124
3990.710916,-0.000189
3991.193119,-0.000177
3991.675321,-0.000104
3992.157524,-0.000028
3992.639727,-0.000047
3993.121930,-0.000062
3993.604133,-0.000070
3994.086336,-0.000097
3994.568539,-0.000173
3995.050742,-0.000250
3995.532944,-0.000159
3996.015147,0.000050
3996.497350,0.000178
3996.979553,0.000133
3997.461756,0.000066
3997.943959,0.000065
3998.426162,0.000087
3998.908364,0.000145
3999.390567,0.000238
3999.872770,0.000352
4000.354973,0.000299
