XLabel,Wavenumber
YLabel,Absorbance
FileType,Absorbance
DisplayDirection,20300
PeakDirection,20312
899.790547,0.000068
900.272750,0.000140
900.754953,-0.001185
901.237156,0.000153
901.719359,0.001932
902.201562,0.001089
902.683764,0.000142
903.165967,0.000122
903.648170,0.000056
904.130373,-0.001283
904.612576,-0.002465
905.094779,-0.000716
905.576982,0.001041
906.059184,0.001024
906.541387,0.001181
907.023590,0.001324
907.505793,0.001328
907.987996,0.001361
908.470199,0.000237
908.952402,-0.001675
909.434605,-0.001780
909.916807,-0.000942
910.399010,-0.000693
910.881213,0.000317
911.363416,0.000763
911.845619,0.000845
912.327822,0.001324
912.810025,0.000593
913.292227,0.000293
913.774430,0.000591
914.256633,0.000743
914.738836,0.000693
915.221039,-0.000713
915.703242,-0.001016
916.185445,0.000180
916.667648,0.000720
917.149850,0.001391
917.632053,0.001877
918.114256,0.001348
918.596459,-0.000445
919.078662,-0.002137
919.560865,-0.001365
920.043068,0.000027
920.525270,-0.000023
921.007473,-0.000351
921.489676,-0.000200
921.971879,0.000319
922.454082,0.000986
922.936285,0.001078
923.418488,0.000727
923.900690,0.000905
924.382893,0.000677
924.865096,0.000160
925.347299,0.000475
925.829502,0.000257
926.311705,0.000000
926.793908,0.000286
927.276111,0.000026
927.758313,0.000029
928.240516,0.000309
928.722719,0.000622
929.204922,0.000486
929.687125,-0.000945
930.169328,-0.001056
930.651531,0.000326
931.133733,-0.000531
931.615936,-0.002127
932.098139,-0.001209
932.580342,-0.000163
933.062545,-0.000792
933.544748,-0.000427
934.026951,0.001115
934.509154,0.000913
934.991356,-0.000109
935.473559,0.000147
935.955762,0.000148
936.437965,-0.000414
936.920168,-0.000239
937.402371,0.000129
937.884574,0.000165
938.366776,0.000120
938.848979,0.000128
939.331182,0.000401
939.813385,0.000872
940.295588,0.000473
940.777791,-0.000589
941.259994,-0.000749
941.742197,-0.000937
942.224399,-0.001543
942.706602,-0.000865
943.188805,0.000035
943.671008,-0.000560
944.153211,-0.001160
944.635414,-0.000699
945.117617,-0.000748
945.599819,-0.001253
946.082022,-0.000721
946.564225,-0.000044
947.046428,0.000014
947.528631,-0.000075
948.010834,-0.000595
948.493037,-0.000748
948.975240,0.000140
949.457442,0.000368
949.939645,-0.000094
950.421848,0.000233
950.904051,0.000398
951.386254,-0.000049
951.868457,-0.000013
952.350660,0.000206
952.832862,0.000162
953.315065,0.000117
953.797268,0.000104
954.279471,0.000107
954.761674,0.000082
955.243877,0.000104
955.726080,0.000118
956.208282,-0.000099
956.690485,-0.000290
957.172688,-0.000416
957.654891,-0.000528
958.137094,-0.000256
958.619297,0.000072
959.101500,0.000013
959.583703,0.000007
960.065905,0.000121
960.548108,-0.000003
961.030311,-0.000050
961.512514,0.000054
961.994717,-0.000039
962.476920,-0.000021
962.959123,0.000085
963.441325,-0.000053
963.923528,-0.000145
964.405731,-0.000383
964.887934,-0.000891
965.370137,-0.000938
965.852340,-0.000449
966.334543,0.000015
966.816746,0.000226
967.298948,0.000322
967.781151,0.000316
968.263354,0.000049
968.745557,0.000034
969.227760,0.000294
969.709963,0.000067
970.192166,-0.000243
970.674368,-0.000390
971.156571,-0.000577
971.638774,-0.000435
972.120977,-0.000412
972.603180,-0.000460
973.085383,-0.000051
973.567586,0.000064
974.049789,-0.000074
974.531991,0.000074
975.014194,0.000145
975.496397,0.000112
975.978600,0.000141
976.460803,0.000079
976.943006,0.000034
977.425209,0.000329
977.907411,0.000462
978.389614,0.000047
978.871817,-0.000003
979.354020,0.000295
979.836223,0.000126
980.318426,-0.000330
980.800629,-0.000572
981.282831,-0.000304
981.765034,-0.000022
982.247237,-0.000157
982.729440,-0.000270
983.211643,-0.000255
983.693846,-0.000113
984.176049,-0.000028
984.658252,-0.000278
985.140454,-0.000287
985.622657,0.000022
986.104860,0.000039
986.587063,-0.000027
987.069266,0.000012
987.551469,-0.000021
988.033672,0.000241
988.515874,0.000554
988.998077,0.000318
989.480280,0.000051
989.962483,-0.000061
990.444686,-0.000249
990.926889,-0.000115
991.409092,0.000171
991.891295,0.000206
992.373497,0.000180
992.855700,0.000143
993.337903,0.000048
993.820106,-0.000002
994.302309,-0.000015
994.784512,-0.000061
995.266715,-0.000090
995.748917,-0.000095
996.231120,-0.000142
996.713323,-0.000180
997.195526,-0.000184
997.677729,-0.000148
998.159932,-0.000149
998.642135,-0.000165
999.124338,0.000001
999.606540,0.000035
1000.088743,-0.000137
1000.570946,-0.000034
1001.053149,0.000081
1001.535352,-0.000081
1002.017555,-0.000084
1002.499758,0.000051
1002.981960,-0.000005
1003.464163,-0.000003
1003.946366,0.000110
1004.428569,-0.000030
1004.910772,-0.000278
1005.392975,-0.000294
1005.875178,-0.000132
1006.357381,0.000064
1006.839583,0.000137
1007.321786,0.000030
1007.803989,-0.000009
1008.286192,0.000068
1008.768395,0.000091
1009.250598,0.000146
1009.732801,0.000243
1010.215003,0.000236
1010.697206,0.000162
1011.179409,0.000027
1011.661612,-0.000141
1012.143815,-0.000135
1012.626018,-0.000044
1013.108221,-0.000092
1013.590423,-0.000163
1014.072626,-0.000172
1014.554829,-0.000047
1015.037032,0.000085
1015.519235,-0.000047
1016.001438,-0.000077
1016.483641,0.000123
1016.965844,0.000178
1017.448046,0.000003
1017.930249,-0.000237
1018.412452,-0.000231
1018.894655,-0.000103
1019.376858,-0.000032
1019.859061,0.000211
1020.341264,0.000379
1020.823466,0.000221
1021.305669,0.000049
1021.787872,-0.000016
1022.270075,-0.000085
1022.752278,-0.000101
1023.234481,-0.000040
1023.716684,0.000038
1024.198887,0.000087
1024.681089,0.000000
1025.163292,-0.000174
1025.645495,-0.000256
1026.127698,-0.000159
1026.609901,0.000026
1027.092104,0.000030
1027.574307,-0.000102
1028.056509,-0.000103
1028.538712,-0.000106
1029.020915,-0.000197
1029.503118,-0.000177
1029.985321,-0.000057
1030.467524,0.000026
1030.949727,-0.000013
1031.431930,-0.000090
1031.914132,-0.000049
1032.396335,-0.000040
1032.878538,-0.000038
1033.360741,0.000019
1033.842944,-0.000054
1034.325147,-0.000083
1034.807350,-0.000048
1035.289552,-0.000102
1035.771755,-0.000008
1036.253958,0.000185
1036.736161,0.000294
1037.218364,0.000273
1037.700567,0.000053
1038.182770,-0.000124
1038.664973,-0.000164
1039.147175,-0.000212
1039.629378,-0.000213
1040.111581,-0.000178
1040.593784,-0.000099
1041.075987,-0.000031
1041.558190,-0.000105
1042.040393,-0.000095
1042.522595,0.000013
1043.004798,-0.000000
1043.487001,-0.000076
1043.969204,-0.000103
1044.451407,0.000074
1044.933610,0.000212
1045.415813,-0.000008
1045.898015,-0.000127
1046.380218,-0.000063
1046.862421,-0.000200
1047.344624,-0.000303
1047.826827,-0.000281
1048.309030,-0.000271
1048.791233,-0.000128
1049.273436,0.000072
1049.755638,0.000148
1050.237841,0.000031
1050.720044,-0.000099
1051.202247,-0.000007
1051.684450,0.000013
1052.166653,-0.000073
1052.648856,-0.000068
1053.131058,-0.000168
1053.613261,-0.000297
1054.095464,-0.000203
1054.577667,0.000014
1055.059870,-0.000024
1055.542073,-0.000167
1056.024276,-0.000034
1056.506479,0.000002
1056.988681,-0.000049
1057.470884,-0.000028
1057.953087,-0.000140
1058.435290,-0.000152
1058.917493,-0.000079
1059.399696,0.000002
1059.881899,0.000159
1060.364101,0.000160
1060.846304,0.000087
1061.328507,0.000116
1061.810710,0.000076
1062.292913,-0.000046
1062.775116,-0.000015
1063.257319,0.000037
1063.739522,-0.000014
1064.221724,0.000022
1064.703927,0.000078
1065.186130,0.000121
1065.668333,0.000072
1066.150536,-0.000113
1066.632739,-0.000094
1067.114942,-0.000008
1067.597144,-0.000144
1068.079347,-0.000271
1068.561550,-0.000232
1069.043753,-0.000066
1069.525956,0.000113
1070.008159,0.000158
1070.490362,0.000077
1070.972564,-0.000096
1071.454767,-0.000154
1071.936970,-0.000003
1072.419173,-0.000004
1072.901376,-0.000046
1073.383579,0.000151
1073.865782,0.000184
1074.347985,-0.000020
1074.830187,-0.000101
1075.312390,-0.000108
1075.794593,-0.000186
1076.276796,-0.000207
1076.758999,-0.000111
1077.241202,-0.000056
1077.723405,-0.000058
1078.205607,-0.000049
1078.687810,-0.000040
1079.170013,0.000055
1079.652216,0.000185
1080.134419,0.000133
1080.616622,-0.000017
1081.098825,-0.000045
1081.581028,0.000015
1082.063230,0.000055
1082.545433,0.000109
1083.027636,0.000110
1083.509839,0.000026
1083.992042,0.000057
1084.474245,0.000160
1084.956448,0.000124
1085.438650,0.000009
1085.920853,-0.000051
1086.403056,-0.000016
1086.885259,0.000038
1087.367462,0.000077
1087.849665,0.000107
1088.331868,0.000065
1088.814071,-0.000007
1089.296273,-0.000041
1089.778476,-0.000059
1090.260679,-0.000012
1090.742882,0.000113
1091.225085,0.000116
1091.707288,0.000019
1092.189491,0.000075
1092.671693,0.000178
1093.153896,0.000127
1093.636099,0.000011
1094.118302,-0.000045
1094.600505,-0.000054
1095.082708,-0.000062
1095.564911,-0.000043
1096.047114,-0.000039
1096.529316,-0.000078
1097.011519,-0.000065
1097.493722,-0.000042
1097.975925,-0.000099
1098.458128,-0.000110
1098.940331,-0.000045
1099.422534,-0.000029
1099.904736,-0.000032
1100.386939,-0.000070
1100.869142,-0.000155
1101.351345,-0.000134
1101.833548,-0.000085
1102.315751,-0.000127
1102.797954,-0.000126
1103.280156,-0.000083
1103.762359,-0.000067
1104.244562,-0.000045
1104.726765,-0.000027
1105.208968,0.000049
1105.691171,0.000083
1106.173374,-0.000074
1106.655577,-0.000195
1107.137779,-0.000230
1107.619982,-0.000271
1108.102185,-0.000220
1108.584388,-0.000216
1109.066591,-0.000225
1109.548794,-0.000044
1110.030997,0.000118
1110.513199,0.000150
1110.995402,0.000099
1111.477605,-0.000035
1111.959808,-0.000098
1112.442011,-0.000032
1112.924214,0.000092
1113.406417,0.000141
1113.888620,0.000032
1114.370822,-0.000067
1114.853025,-0.000078
1115.335228,-0.000057
1115.817431,-0.000092
1116.299634,-0.000196
1116.781837,-0.000193
1117.264040,-0.000093
1117.746242,-0.000003
1118.228445,0.000069
1118.710648,0.000089
1119.192851,0.000074
1119.675054,0.000008
1120.157257,-0.000030
1120.639460,0.000131
1121.121663,0.000210
1121.603865,-0.000008
1122.086068,-0.000076
1122.568271,0.000059
1123.050474,0.000012
1123.532677,-0.000046
1124.014880,0.000000
1124.497083,-0.000045
1124.979285,-0.000110
1125.461488,-0.000092
1125.943691,-0.000036
1126.425894,-0.000021
1126.908097,-0.000040
1127.390300,-0.000034
1127.872503,-0.000058
1128.354706,-0.000070
1128.836908,0.000019
1129.319111,0.000090
1129.801314,0.000115
1130.283517,0.000157
1130.765720,0.000115
1131.247923,-0.000045
1131.730126,-0.000178
1132.212328,-0.000174
1132.694531,-0.000069
1133.176734,0.000002
1133.658937,0.000016
1134.141140,0.000058
1134.623343,0.000089
1135.105546,0.000050
1135.587748,0.000006
1136.069951,0.000009
1136.552154,0.000049
1137.034357,-0.000006
1137.516560,-0.000135
1137.998763,-0.000103
1138.480966,-0.000040
1138.963169,-0.000056
1139.445371,0.000005
1139.927574,0.000042
1140.409777,0.000001
1140.891980,-0.000027
1141.374183,-0.000105
1141.856386,-0.000120
1142.338589,0.000069
1142.820791,0.000177
1143.302994,0.000050
1143.785197,-0.000023
1144.267400,-0.000034
1144.749603,-0.000140
1145.231806,-0.000151
1145.714009,-0.000011
1146.196212,0.000089
1146.678414,0.000096
1147.160617,0.000008
1147.642820,-0.000126
1148.125023,-0.000134
1148.607226,-0.000062
1149.089429,-0.000033
1149.571632,0.000048
1150.053834,0.000122
1150.536037,0.000085
1151.018240,0.000063
1151.500443,0.000040
1151.982646,-0.000032
1152.464849,-0.000035
1152.947052,0.000035
1153.429255,0.000021
1153.911457,-0.000060
1154.393660,-0.000019
1154.875863,0.000046
1155.358066,0.000013
1155.840269,-0.000019
1156.322472,-0.000046
1156.804675,-0.000047
1157.286877,-0.000040
1157.769080,-0.000059
1158.251283,-0.000037
1158.733486,0.000017
1159.215689,0.000052
1159.697892,0.000018
1160.180095,-0.000014
1160.662298,0.000004
1161.144500,-0.000006
1161.626703,0.000025
1162.108906,0.000039
1162.591109,-0.000036
1163.073312,-0.000042
1163.555515,0.000005
1164.037718,0.000017
1164.519920,0.000032
1165.002123,0.000040
1165.484326,0.000006
1165.966529,-0.000018
1166.448732,0.000005
1166.930935,0.000062
1167.413138,0.000123
1167.895340,0.000138
1168.377543,0.000095
1168.859746,0.000005
1169.341949,-0.000018
1169.824152,0.000084
1170.306355,0.000114
1170.788558,0.000032
1171.270761,-0.000034
1171.752963,-0.000112
1172.235166,-0.000122
1172.717369,-0.000059
1173.199572,-0.000096
1173.681775,-0.000091
1174.163978,-0.000011
1174.646181,-0.000054
1175.128383,-0.000059
1175.610586,0.000043
1176.092789,0.000068
1176.574992,0.000042
1177.057195,0.000007
1177.539398,-0.000076
1178.021601,-0.000139
1178.503804,-0.000058
1178.986006,0.000148
1179.468209,0.000203
1179.950412,0.000072
1180.432615,0.000133
1180.914818,0.000292
1181.397021,0.000191
1181.879224,0.000023
1182.361426,0.000020
1182.843629,0.000121
1183.325832,0.000160
1183.808035,0.000101
1184.290238,0.000075
1184.772441,0.000045
1185.254644,0.000056
1185.736847,0.000106
1186.219049,0.000069
1186.701252,0.000086
1187.183455,0.000097
1187.665658,0.000029
1188.147861,0.000022
1188.630064,0.000016
1189.112267,0.000024
1189.594469,0.000037
1190.076672,-0.000003
1190.558875,0.000021
1191.041078,0.000056
1191.523281,0.000053
1192.005484,0.000133
1192.487687,0.000152
1192.969889,0.000022
1193.452092,-0.000024
1193.934295,0.000025
1194.416498,0.000045
1194.898701,0.000049
1195.380904,0.000042
1195.863107,0.000082
1196.345310,0.000132
1196.827512,0.000054
1197.309715,-0.000013
1197.791918,0.000105
1198.274121,0.000202
1198.756324,0.000138
1199.238527,0.000070
1199.720730,0.000071
1200.202932,0.000104
1200.685135,0.000117
1201.167338,0.000110
1201.649541,0.000105
1202.131744,0.000075
1202.613947,0.000058
1203.096150,0.000077
1203.578353,0.000065
1204.060555,-0.000001
1204.542758,-0.000022
1205.024961,-0.000005
1205.507164,0.000006
1205.989367,0.000066
1206.471570,0.000046
1206.953773,0.000028
1207.435975,0.000112
1207.918178,0.000098
1208.400381,0.000133
1208.882584,0.000207
1209.364787,0.000074
1209.846990,-0.000041
1210.329193,0.000045
1210.811396,0.000190
1211.293598,0.000227
1211.775801,0.000185
1212.258004,0.000192
1212.740207,0.000203
1213.222410,0.000184
1213.704613,0.000159
1214.186816,0.000112
1214.669018,0.000118
1215.151221,0.000218
1215.633424,0.000246
1216.115627,0.000184
1216.597830,0.000170
1217.080033,0.000128
1217.562236,0.000082
1218.044439,0.000202
1218.526641,0.000276
1219.008844,0.000127
1219.491047,0.000039
1219.973250,0.000105
1220.455453,0.000111
1220.937656,0.000074
1221.419859,0.000111
1221.902061,0.000197
1222.384264,0.000263
1222.866467,0.000241
1223.348670,0.000156
1223.830873,0.000122
1224.313076,0.000193
1224.795279,0.000250
1225.277481,0.000219
1225.759684,0.000199
1226.241887,0.000169
1226.724090,0.000074
1227.206293,0.000022
1227.688496,0.000071
1228.170699,0.000195
1228.652902,0.000267
1229.135104,0.000193
1229.617307,0.000139
1230.099510,0.000162
1230.581713,0.000163
1231.063916,0.000167
1231.546119,0.000171
1232.028322,0.000178
1232.510524,0.000156
1232.992727,0.000088
1233.474930,0.000081
1233.957133,0.000098
1234.439336,0.000092
1234.921539,0.000110
1235.403742,0.000156
1235.885945,0.000183
1236.368147,0.000140
1236.850350,0.000126
1237.332553,0.000188
1237.814756,0.000210
1238.296959,0.000163
1238.779162,0.000145
1239.261365,0.000211
1239.743567,0.000237
1240.225770,0.000191
1240.707973,0.000194
1241.190176,0.000230
1241.672379,0.000238
1242.154582,0.000198
1242.636785,0.000156
1243.118988,0.000201
1243.601190,0.000279
1244.083393,0.000317
1244.565596,0.000308
1245.047799,0.000262
1245.530002,0.000246
1246.012205,0.000258
1246.494408,0.000242
1246.976610,0.000264
1247.458813,0.000311
1247.941016,0.000266
1248.423219,0.000176
1248.905422,0.000160
1249.387625,0.000205
1249.869828,0.000241
1250.352031,0.000249
1250.834233,0.000229
1251.316436,0.000210
1251.798639,0.000265
1252.280842,0.000342
1252.763045,0.000333
1253.245248,0.000270
1253.727451,0.000211
1254.209653,0.000180
1254.691856,0.000191
1255.174059,0.000200
1255.656262,0.000183
1256.138465,0.000206
1256.620668,0.000255
1257.102871,0.000228
1257.585073,0.000152
1258.067276,0.000128
1258.549479,0.000172
1259.031682,0.000226
1259.513885,0.000260
1259.996088,0.000341
1260.478291,0.000399
1260.960494,0.000327
1261.442696,0.000230
1261.924899,0.000164
1262.407102,0.000171
1262.889305,0.000264
1263.371508,0.000285
1263.853711,0.000215
1264.335914,0.000169
1264.818116,0.000220
1265.300319,0.000328
1265.782522,0.000333
1266.264725,0.000262
1266.746928,0.000226
1267.229131,0.000275
1267.711334,0.000347
1268.193537,0.000289
1268.675739,0.000281
1269.157942,0.000371
1269.640145,0.000345
1270.122348,0.000345
1270.604551,0.000390
1271.086754,0.000403
1271.568957,0.000498
1272.051159,0.000510
1272.533362,0.000345
1273.015565,0.000176
1273.497768,0.000110
1273.979971,0.000164
1274.462174,0.000227
1274.944377,0.000232
1275.426580,0.000258
1275.908782,0.000315
1276.390985,0.000252
1276.873188,0.000095
1277.355391,0.000040
1277.837594,0.000057
1278.319797,0.000085
1278.802000,0.000119
1279.284202,0.000190
1279.766405,0.000289
1280.248608,0.000213
1280.730811,0.000060
1281.213014,0.000042
1281.695217,0.000032
1282.177420,0.000033
1282.659622,0.000080
1283.141825,0.000036
1283.624028,-0.000055
1284.106231,0.000017
1284.588434,0.000215
1285.070637,0.000236
1285.552840,0.000094
1286.035043,0.000065
1286.517245,0.000152
1286.999448,0.000239
1287.481651,0.000227
1287.963854,0.000118
1288.446057,0.000081
1288.928260,0.000131
1289.410463,0.000126
1289.892665,0.000063
1290.374868,0.000061
1290.857071,0.000079
1291.339274,0.000049
1291.821477,0.000072
1292.303680,0.000075
1292.785883,0.000001
1293.268086,-0.000055
1293.750288,-0.000130
1294.232491,-0.000155
1294.714694,-0.000106
1295.196897,-0.000091
1295.679100,-0.000070
1296.161303,-0.000038
1296.643506,-0.000009
1297.125708,-0.000015
1297.607911,-0.000054
1298.090114,-0.000043
1298.572317,-0.000027
1299.054520,-0.000028
1299.536723,-0.000035
1300.018926,-0.000077
1300.501129,-0.000113
1300.983331,-0.000111
1301.465534,-0.000040
1301.947737,0.000057
1302.429940,0.000091
1302.912143,0.000041
1303.394346,-0.000033
1303.876549,-0.000066
1304.358751,-0.000082
1304.840954,-0.000028
1305.323157,0.000009
1305.805360,-0.000017
1306.287563,0.000055
1306.769766,0.000048
1307.251969,-0.000020
1307.734172,0.000068
1308.216374,0.000127
1308.698577,0.000104
1309.180780,0.000088
1309.662983,0.000075
1310.145186,0.000031
1310.627389,0.000036
1311.109592,0.000215
1311.591794,0.000414
1312.073997,0.000554
1312.556200,0.000618
1313.038403,0.000596
1313.520606,0.000600
1314.002809,0.000567
1314.485012,0.000510
1314.967214,0.000458
1315.449417,0.000382
1315.931620,0.000375
1316.413823,0.000455
1316.896026,0.000631
1317.378229,0.000736
1317.860432,0.000702
1318.342635,0.000912
1318.824837,0.001239
1319.307040,0.001138
1319.789243,0.000784
1320.271446,0.000680
1320.753649,0.000754
1321.235852,0.000656
1321.718055,0.000461
1322.200257,0.000404
1322.682460,0.000436
1323.164663,0.000487
1323.646866,0.000516
1324.129069,0.000445
1324.611272,0.000339
1325.093475,0.000295
1325.575678,0.000300
1326.057880,0.000276
1326.540083,0.000257
1327.022286,0.000358
1327.504489,0.000498
1327.986692,0.000493
1328.468895,0.000352
1328.951098,0.000383
1329.433300,0.000632
1329.915503,0.000700
1330.397706,0.000615
1330.879909,0.000634
1331.362112,0.000658
1331.844315,0.000603
1332.326518,0.000478
1332.808721,0.000392
1333.290923,0.000416
1333.773126,0.000417
1334.255329,0.000388
1334.737532,0.000384
1335.219735,0.000457
1335.701938,0.000787
1336.184141,0.001467
1336.666343,0.001982
1337.148546,0.001663
1337.630749,0.001270
1338.112952,0.001744
1338.595155,0.002396
1339.077358,0.002408
1339.559561,0.002188
1340.041764,0.002330
1340.523966,0.002197
1341.006169,0.001235
1341.488372,0.000545
1341.970575,0.000629
1342.452778,0.000645
1342.934981,0.000365
1343.417184,0.000262
1343.899386,0.000361
1344.381589,0.000412
1344.863792,0.000383
1345.345995,0.000310
1345.828198,0.000302
1346.310401,0.000411
1346.792604,0.000548
1347.274806,0.000562
1347.757009,0.000398
1348.239212,0.000387
1348.721415,0.000632
1349.203618,0.000713
1349.685821,0.000464
1350.168024,0.000217
1350.650227,0.000172
1351.132429,0.000177
1351.614632,0.000216
1352.096835,0.000319
1352.579038,0.000372
1353.061241,0.000341
1353.543444,0.000332
1354.025647,0.000417
1354.507849,0.000606
1354.990052,0.000794
1355.472255,0.000743
1355.954458,0.000601
1356.436661,0.000461
1356.918864,0.000320
1357.401067,0.000422
1357.883270,0.000490
1358.365472,0.000375
1358.847675,0.000370
1359.329878,0.000547
1359.812081,0.000854
1360.294284,0.001374
1360.776487,0.002252
1361.258690,0.002646
1361.740892,0.002047
1362.223095,0.001916
1362.705298,0.003051
1363.187501,0.003760
1363.669704,0.002392
1364.151907,0.000658
1364.634110,0.000169
1365.116313,0.000147
1365.598515,0.000158
1366.080718,0.000316
1366.562921,0.000407
1367.045124,0.000427
1367.527327,0.000522
1368.009530,0.000819
1368.491733,0.001162
1368.973935,0.001025
1369.456138,0.000430
1369.938341,0.000165
1370.420544,0.000275
1370.902747,0.000333
1371.384950,0.000402
1371.867153,0.000678
1372.349355,0.001169
1372.831558,0.001541
1373.313761,0.002391
1373.795964,0.003480
1374.278167,0.002988
1374.760370,0.002196
1375.242573,0.002060
1375.724776,0.001253
1376.206978,0.000451
1376.689181,0.000338
1377.171384,0.000441
1377.653587,0.000757
1378.135790,0.000932
1378.617993,0.000595
1379.100196,0.000362
1379.582398,0.000515
1380.064601,0.000432
1380.546804,0.000222
1381.029007,0.000346
1381.511210,0.000401
1381.993413,0.000186
1382.475616,0.000119
1382.957819,0.000194
1383.440021,0.000201
1383.922224,0.000197
1384.404427,0.000268
1384.886630,0.000474
1385.368833,0.000672
1385.851036,0.001242
1386.333239,0.002125
1386.815441,0.002968
1387.297644,0.004467
1387.779847,0.004540
1388.262050,0.002087
1388.744253,0.000529
1389.226456,0.000408
1389.708659,0.000426
1390.190862,0.000418
1390.673064,0.000345
1391.155267,0.000244
1391.637470,0.000378
1392.119673,0.000681
1392.601876,0.000964
1393.084079,0.001413
1393.566282,0.002147
1394.048484,0.004330
1394.530687,0.006487
1395.012890,0.004883
1395.495093,0.003051
1395.977296,0.002888
1396.459499,0.001974
1396.941702,0.001312
1397.423905,0.002074
1397.906107,0.002802
1398.388310,0.002946
1398.870513,0.004224
1399.352716,0.005046
1399.834919,0.002841
1400.317122,0.000894
1400.799325,0.000429
1401.281527,0.000144
1401.763730,0.000186
1402.245933,0.000331
1402.728136,0.000371
1403.210339,0.000557
1403.692542,0.000859
1404.174745,0.001410
1404.656947,0.002644
1405.139150,0.003244
1405.621353,0.001791
1406.103556,0.000388
1406.585759,0.000088
1407.067962,-0.000027
1407.550165,-0.000053
1408.032368,-0.000070
1408.514570,-0.000108
1408.996773,0.000034
1409.478976,0.000311
1409.961179,0.000548
1410.443382,0.000448
1410.925585,0.000284
1411.407788,0.000464
1411.889990,0.000646
1412.372193,0.000462
1412.854396,0.000146
1413.336599,0.000139
1413.818802,0.000315
1414.301005,0.000409
1414.783208,0.000530
1415.265411,0.000740
1415.747613,0.001266
1416.229816,0.001783
1416.712019,0.002149
1417.194222,0.003309
1417.676425,0.004394
1418.158628,0.004459
1418.640831,0.006186
1419.123033,0.010542
1419.605236,0.011203
1420.087439,0.005727
1420.569642,0.001726
1421.051845,0.000831
1421.534048,0.000705
1422.016251,0.000669
1422.498454,0.000907
1422.980656,0.001351
1423.462859,0.002376
1423.945062,0.003213
1424.427265,0.002333
1424.909468,0.000913
1425.391671,0.000437
1425.873874,0.000421
1426.356076,0.000465
1426.838279,0.000490
1427.320482,0.000501
1427.802685,0.000632
1428.284888,0.000935
1428.767091,0.001221
1429.249294,0.001915
1429.731497,0.003415
1430.213699,0.003543
1430.695902,0.001794
1431.178105,0.000721
1431.660308,0.000603
1432.142511,0.000591
1432.624714,0.000785
1433.106917,0.001154
1433.589119,0.001125
1434.071322,0.000913
1434.553525,0.001193
1435.035728,0.002160
1435.517931,0.003779
1436.000134,0.006582
1436.482337,0.011321
1436.964539,0.012287
1437.446742,0.006231
1437.928945,0.001911
1438.411148,0.000968
1438.893351,0.000672
1439.375554,0.000496
1439.857757,0.000377
1440.339960,0.000307
1440.822162,0.000318
1441.304365,0.000289
1441.786568,0.000393
1442.268771,0.000383
1442.750974,0.000242
1443.233177,0.000170
1443.715380,0.000093
1444.197582,0.000139
1444.679785,0.000340
1445.161988,0.000561
1445.644191,0.000713
1446.126394,0.000980
1446.608597,0.001429
1447.090800,0.002086
1447.573003,0.003721
1448.055205,0.004831
1448.537408,0.003023
1449.019611,0.000971
1449.501814,0.000548
1449.984017,0.000510
1450.466220,0.000533
1450.948423,0.000646
1451.430625,0.000943
1451.912828,0.001568
1452.395031,0.001536
1452.877234,0.000946
1453.359437,0.000881
1453.841640,0.001384
1454.323843,0.002323
1454.806046,0.004062
1455.288248,0.006331
1455.770451,0.008139
1456.252654,0.012086
1456.734857,0.018699
1457.217060,0.016311
1457.699263,0.009754
1458.181466,0.008393
1458.663668,0.007492
1459.145871,0.005182
1459.628074,0.003327
1460.110277,0.001542
1460.592480,0.000649
1461.074683,0.000587
1461.556886,0.000444
1462.039089,0.000467
1462.521291,0.000651
1463.003494,0.001069
1463.485697,0.001882
1463.967900,0.002879
1464.450103,0.005317
1464.932306,0.007850
1465.414509,0.005512
1465.896711,0.001749
1466.378914,0.000627
1466.861117,0.000480
1467.343320,0.000353
1467.825523,0.000306
1468.307726,0.000203
1468.789929,0.000264
1469.272131,0.000419
1469.754334,0.000768
1470.236537,0.001558
1470.718740,0.002822
1471.200943,0.004899
1471.683146,0.008968
1472.165349,0.011690
1472.647552,0.008816
1473.129754,0.007653
1473.611957,0.008847
1474.094160,0.005826
1474.576363,0.002647
1475.058566,0.002279
1475.540769,0.003229
1476.022972,0.005459
1476.505174,0.005810
1476.987377,0.002750
1477.469580,0.000623
1477.951783,0.000301
1478.433986,0.000123
1478.916189,-0.000054
1479.398392,0.000045
1479.880595,0.000190
1480.362797,0.000298
1480.845000,0.000777
1481.327203,0.001229
1481.809406,0.000713
1482.291609,0.000019
1482.773812,-0.000159
1483.256015,-0.000222
1483.738217,-0.000228
1484.220420,-0.000159
1484.702623,0.000013
1485.184826,0.000274
1485.667029,0.001011
1486.149232,0.001940
1486.631435,0.002784
1487.113638,0.004743
1487.595840,0.005519
1488.078043,0.003593
1488.560246,0.002891
1489.042449,0.004503
1489.524652,0.006592
1490.006855,0.007223
1490.489058,0.006653
1490.971260,0.005694
1491.453463,0.003169
1491.935666,0.000839
1492.417869,0.000272
1492.900072,0.000138
1493.382275,0.000147
1493.864478,0.000383
1494.346680,0.000817
1494.828883,0.001840
1495.311086,0.003232
1495.793289,0.006372
1496.275492,0.009827
1496.757695,0.007395
1497.239898,0.003468
1497.722101,0.002615
1498.204303,0.003930
1498.686506,0.006422
1499.168709,0.005944
1499.650912,0.002396
1500.133115,0.000789
1500.615318,0.000750
1501.097521,0.000717
1501.579723,0.001056
1502.061926,0.001185
1502.544129,0.000856
1503.026332,0.000861
1503.508535,0.001391
1503.990738,0.002472
1504.472941,0.004312
1504.955144,0.008071
1505.437346,0.014872
1505.919549,0.018095
1506.401752,0.016256
1506.883955,0.018095
1507.366158,0.016898
1507.848361,0.010609
1508.330564,0.008258
1508.812766,0.007198
1509.294969,0.005323
1509.777172,0.004774
1510.259375,0.003880
1510.741578,0.002522
1511.223781,0.002125
1511.705984,0.003019
1512.188187,0.005060
1512.670389,0.004738
1513.152592,0.002144
1513.634795,0.001170
1514.116998,0.001585
1514.599201,0.002926
1515.081404,0.004488
1515.563607,0.004466
1516.045809,0.005137
1516.528012,0.007549
1517.010215,0.009289
1517.492418,0.009253
1517.974621,0.006465
1518.456824,0.003465
1518.939027,0.002953
1519.421230,0.004432
1519.903432,0.008040
1520.385635,0.011244
1520.867838,0.013078
1521.350041,0.014804
1521.832244,0.011505
1522.314447,0.008669
1522.796650,0.008782
1523.278852,0.006049
1523.761055,0.003304
1524.243258,0.003308
1524.725461,0.004662
1525.207664,0.007416
1525.689867,0.008309
1526.172070,0.005030
1526.654272,0.003047
1527.136475,0.004151
1527.618678,0.004386
1528.100881,0.003404
1528.583084,0.003287
1529.065287,0.002358
1529.547490,0.000833
1530.029693,0.000638
1530.511895,0.000971
1530.994098,0.001471
1531.476301,0.002741
1531.958504,0.003623
1532.440707,0.004290
1532.922910,0.006612
1533.405113,0.009482
1533.887315,0.009687
1534.369518,0.006275
1534.851721,0.002715
1535.333924,0.001654
1535.816127,0.001644
1536.298330,0.001567
1536.780533,0.002040
1537.262736,0.003113
1537.744938,0.005140
1538.227141,0.008952
1538.709344,0.015335
1539.191547,0.019762
1539.673750,0.017387
1540.155953,0.016494
1540.638156,0.015100
1541.120358,0.010335
1541.602561,0.010670
1542.084764,0.014701
1542.566967,0.011617
1543.049170,0.006552
1543.531373,0.005696
1544.013576,0.005342
1544.495779,0.005213
1544.977981,0.007462
1545.460184,0.007380
1545.942387,0.003621
1546.424590,0.001259
1546.906793,0.000757
1547.388996,0.000585
1547.871199,0.000668
1548.353401,0.001020
1548.835604,0.001599
1549.317807,0.002827
1549.800010,0.004438
1550.282213,0.004607
1550.764416,0.002740
1551.246619,0.001137
1551.728822,0.000874
1552.211024,0.001142
1552.693227,0.001861
1553.175430,0.002923
1553.657633,0.004943
1554.139836,0.008761
1554.622039,0.009547
1555.104242,0.005340
1555.586444,0.003035
1556.068647,0.003817
1556.550850,0.005608
1557.033053,0.010131
1557.515256,0.017151
1557.997459,0.021457
1558.479662,0.022719
1558.961864,0.020241
1559.444067,0.017551
1559.926270,0.019030
1560.408473,0.016332
1560.890676,0.007942
1561.372879,0.003034
1561.855082,0.001475
1562.337285,0.000988
1562.819487,0.000819
1563.301690,0.001012
1563.783893,0.001299
1564.266096,0.001999
1564.748299,0.003410
1565.230502,0.003238
1565.712705,0.001350
1566.194907,0.000442
1566.677110,0.000469
1567.159313,0.000692
1567.641516,0.001260
1568.123719,0.002370
1568.605922,0.004237
1569.088125,0.006588
1569.570328,0.008942
1570.052530,0.008211
1570.534733,0.003892
1571.016936,0.001105
1571.499139,0.000558
1571.981342,0.000361
1572.463545,0.000396
1572.945748,0.000545
1573.427950,0.000748
1573.910153,0.001264
1574.392356,0.002216
1574.874559,0.003632
1575.356762,0.005977
1575.838965,0.010675
1576.321168,0.013547
1576.803371,0.008538
1577.285573,0.003554
1577.767776,0.001697
1578.249979,0.000928
1578.732182,0.000526
1579.214385,0.000406
1579.696588,0.000280
1580.178791,0.000169
1580.660993,0.000057
1581.143196,-0.000002
1581.625399,-0.000010
1582.107602,-0.000048
1582.589805,-0.000041
1583.072008,0.000034
1583.554211,0.000090
1584.036413,0.000094
1584.518616,0.000054
1585.000819,0.000027
1585.483022,0.000094
1585.965225,0.000190
1586.447428,0.000248
1586.929631,0.000275
1587.411834,0.000280
1587.894036,0.000362
1588.376239,0.000515
1588.858442,0.000576
1589.340645,0.000616
1589.822848,0.000748
1590.305051,0.000780
1590.787254,0.000717
1591.269456,0.000748
1591.751659,0.000777
1592.233862,0.000707
1592.716065,0.000720
1593.198268,0.000863
1593.680471,0.001053
1594.162674,0.001438
1594.644877,0.001665
1595.127079,0.001311
1595.609282,0.001029
1596.091485,0.001162
1596.573688,0.001200
1597.055891,0.000999
1597.538094,0.000855
1598.020297,0.000857
1598.502499,0.000888
1598.984702,0.000921
1599.466905,0.000961
1599.949108,0.001008
1600.431311,0.001078
1600.913514,0.001217
1601.395717,0.001389
1601.877920,0.001396
1602.360122,0.001348
1602.842325,0.001520
1603.324528,0.001613
1603.806731,0.001321
1604.288934,0.001020
1604.771137,0.000938
1605.253340,0.000985
1605.735542,0.001187
1606.217745,0.001319
1606.699948,0.001419
1607.182151,0.001652
1607.664354,0.001654
1608.146557,0.001491
1608.628760,0.001582
1609.110963,0.001984
1609.593165,0.002161
1610.075368,0.001625
1610.557571,0.001136
1611.039774,0.001075
1611.521977,0.000913
1612.004180,0.000718
1612.486383,0.000787
1612.968585,0.001063
1613.450788,0.001234
1613.932991,0.001377
1614.415194,0.001854
1614.897397,0.002681
1615.379600,0.003892
1615.861803,0.005995
1616.344005,0.010232
1616.826208,0.013327
1617.308411,0.008953
1617.790614,0.003861
1618.272817,0.002135
1618.755020,0.001740
1619.237223,0.001551
1619.719426,0.001600
1620.201628,0.001642
1620.683831,0.001891
1621.166034,0.002346
1621.648237,0.002859
1622.130440,0.003825
1622.612643,0.005183
1623.094846,0.007310
1623.577048,0.009390
1624.059251,0.007598
1624.541454,0.003949
1625.023657,0.002563
1625.505860,0.002503
1625.988063,0.002631
1626.470266,0.002964
1626.952469,0.003502
1627.434671,0.005152
1627.916874,0.006389
1628.399077,0.004847
1628.881280,0.002941
1629.363483,0.002354
1629.845686,0.002108
1630.327889,0.002055
1630.810091,0.002043
1631.292294,0.001918
1631.774497,0.002094
1632.256700,0.002321
1632.738903,0.002555
1633.221106,0.003329
1633.703309,0.004558
1634.185512,0.006432
1634.667714,0.010226
1635.149917,0.015351
1635.632120,0.017233
1636.114323,0.012533
1636.596526,0.006883
1637.078729,0.005261
1637.560932,0.005923
1638.043134,0.004664
1638.525337,0.002570
1639.007540,0.001758
1639.489743,0.001540
1639.971946,0.001628
1640.454149,0.001718
1640.936352,0.001432
1641.418555,0.001260
1641.900757,0.001322
1642.382960,0.001416
1642.865163,0.001423
1643.347366,0.001487
1643.829569,0.001893
1644.311772,0.002839
1644.793975,0.004119
1645.276177,0.006426
1645.758380,0.011158
1646.240583,0.013020
1646.722786,0.009337
1647.204989,0.008144
1647.687192,0.008791
1648.169395,0.007710
1648.651597,0.005686
1649.133800,0.003269
1649.616003,0.002143
1650.098206,0.002454
1650.580409,0.003313
1651.062612,0.005070
1651.544815,0.008204
1652.027018,0.014703
1652.509220,0.023164
1652.991423,0.026189
1653.473626,0.021669
1653.955829,0.015016
1654.438032,0.011718
1654.920235,0.008420
1655.402438,0.003845
1655.884640,0.001776
1656.366843,0.001421
1656.849046,0.001062
1657.331249,0.000791
1657.813452,0.000474
1658.295655,0.000294
1658.777858,0.000357
1659.260061,0.000378
1659.742263,0.000443
1660.224466,0.000653
1660.706669,0.000931
1661.188872,0.001700
1661.671075,0.002564
1662.153278,0.003759
1662.635481,0.006356
1663.117683,0.006649
1663.599886,0.003141
1664.082089,0.000875
1664.564292,0.000482
1665.046495,0.000257
1665.528698,0.000281
1666.010901,0.000460
1666.493104,0.000753
1666.975306,0.001258
1667.457509,0.002063
1667.939712,0.003604
1668.421915,0.005398
1668.904118,0.008017
1669.386321,0.010580
1669.868524,0.008238
1670.350726,0.004011
1670.832929,0.003190
1671.315132,0.004763
1671.797335,0.004804
1672.279538,0.002660
1672.761741,0.001456
1673.243944,0.001732
1673.726146,0.002496
1674.208349,0.003713
1674.690552,0.006429
1675.172755,0.010996
1675.654958,0.010729
1676.137161,0.004837
1676.619364,0.001411
1677.101567,0.000794
1677.583769,0.000649
1678.065972,0.000724
1678.548175,0.000898
1679.030378,0.001223
1679.512581,0.001947
1679.994784,0.002919
1680.476987,0.003397
1680.959189,0.002826
1681.441392,0.002391
1681.923595,0.003080
1682.405798,0.004933
1682.888001,0.008698
1683.370204,0.012996
1683.852407,0.014416
1684.334610,0.015055
1684.816812,0.015709
1685.299015,0.011222
1685.781218,0.005286
1686.263421,0.002379
1686.745624,0.001600
1687.227827,0.001381
1687.710030,0.001648
1688.192232,0.002524
1688.674435,0.002698
1689.156638,0.001794
1689.638841,0.001630
1690.121044,0.002292
1690.603247,0.001861
1691.085450,0.000740
1691.567653,0.000360
1692.049855,0.000419
1692.532058,0.000513
1693.014261,0.000823
1693.496464,0.001489
1693.978667,0.002568
1694.460870,0.004063
1694.943073,0.006885
1695.425275,0.012220
1695.907478,0.016156
1696.389681,0.011482
1696.871884,0.005899
1697.354087,0.004481
1697.836290,0.004646
1698.318493,0.004897
1698.800696,0.006371
1699.282898,0.010400
1699.765101,0.017337
1700.247304,0.022960
1700.729507,0.020417
1701.211710,0.012161
1701.693913,0.005210
1702.176116,0.002337
1702.658318,0.002058
1703.140521,0.002186
1703.622724,0.002534
1704.104927,0.004251
1704.587130,0.006023
1705.069333,0.004828
1705.551536,0.003288
1706.033738,0.004615
1706.515941,0.005740
1706.998144,0.003675
1707.480347,0.001397
1707.962550,0.000642
1708.444753,0.000399
1708.926956,0.000383
1709.409159,0.000606
1709.891361,0.001119
1710.373564,0.001487
1710.855767,0.000860
1711.337970,0.000246
1711.820173,0.000278
1712.302376,0.000649
1712.784579,0.001227
1713.266781,0.001966
1713.748984,0.003488
1714.231187,0.004790
1714.713390,0.005862
1715.195593,0.007448
1715.677796,0.006761
1716.159999,0.004904
1716.642202,0.005778
1717.124404,0.009994
1717.606607,0.012705
1718.088810,0.010145
1718.571013,0.008603
1719.053216,0.006927
1719.535419,0.002933
1720.017622,0.000782
1720.499824,0.000351
1720.982027,0.000096
1721.464230,0.000167
1721.946433,0.000211
1722.428636,0.000195
1722.910839,0.000443
1723.393042,0.000963
1723.875245,0.000896
1724.357447,0.000153
1724.839650,-0.000193
1725.321853,-0.000163
1725.804056,-0.000184
1726.286259,-0.000204
1726.768462,-0.000199
1727.250665,-0.000122
1727.732867,0.000022
1728.215070,0.000303
1728.697273,0.000711
1729.179476,0.001307
1729.661679,0.002641
1730.143882,0.003716
1730.626085,0.002846
1731.108288,0.001548
1731.590490,0.001871
1732.072693,0.003117
1732.554896,0.004648
1733.037099,0.008316
1733.519302,0.012204
1734.001505,0.012612
1734.483708,0.013320
1734.965910,0.011167
1735.448113,0.004890
1735.930316,0.001611
1736.412519,0.000932
1736.894722,0.000733
1737.376925,0.001059
1737.859128,0.001430
1738.341330,0.001875
1738.823533,0.002564
1739.305736,0.004455
1739.787939,0.007226
1740.270142,0.006239
1740.752345,0.002523
1741.234548,0.000882
1741.716751,0.000898
1742.198953,0.001131
1742.681156,0.001948
1743.163359,0.003054
1743.645562,0.002981
1744.127765,0.001818
1744.609968,0.001122
1745.092171,0.001056
1745.574373,0.001232
1746.056576,0.001540
1746.538779,0.001979
1747.020982,0.002916
1747.503185,0.003373
1747.985388,0.003267
1748.467591,0.004258
1748.949794,0.005093
1749.431996,0.004305
1749.914199,0.003313
1750.396402,0.003471
1750.878605,0.005925
1751.360808,0.008231
1751.843011,0.005604
1752.325214,0.001848
1752.807416,0.000647
1753.289619,0.000354
1753.771822,0.000083
1754.254025,0.000124
1754.736228,0.000269
1755.218431,0.000661
1755.700634,0.001093
1756.182837,0.001956
1756.665039,0.003844
1757.147242,0.003995
1757.629445,0.001663
1758.111648,0.000433
1758.593851,0.000487
1759.076054,0.000430
1759.558257,0.000456
1760.040459,0.000804
1760.522662,0.001422
1761.004865,0.002274
1761.487068,0.004355
1761.969271,0.006061
1762.451474,0.003787
1762.933677,0.000896
1763.415880,0.000153
1763.898082,0.000015
1764.380285,-0.000051
1764.862488,0.000007
1765.344691,0.000087
1765.826894,0.000238
1766.309097,0.000501
1766.791300,0.001069
1767.273502,0.001719
1767.755705,0.003386
1768.237908,0.005315
1768.720111,0.004043
1769.202314,0.001655
1769.684517,0.001421
1770.166720,0.002141
1770.648922,0.003376
1771.131125,0.006184
1771.613328,0.007511
1772.095531,0.006908
1772.577734,0.008562
1773.059937,0.008379
1773.542140,0.003904
1774.024343,0.001386
1774.506545,0.001032
1774.988748,0.001058
1775.470951,0.001694
1775.953154,0.001720
1776.435357,0.000669
1776.917560,0.000021
1777.399763,0.000025
1777.881965,0.000123
1778.364168,0.000247
1778.846371,0.000541
1779.328574,0.000823
1779.810777,0.000982
1780.292980,0.001750
1780.775183,0.002547
1781.257386,0.001710
1781.739588,0.000495
1782.221791,0.000291
1782.703994,0.000270
1783.186197,0.000300
1783.668400,0.000557
1784.150603,0.000811
1784.632806,0.001746
1785.115008,0.002467
1785.597211,0.001305
1786.079414,0.000035
1786.561617,-0.000123
1787.043820,-0.000123
1787.526023,-0.000111
1788.008226,0.000017
1788.490429,0.000113
1788.972631,0.000294
1789.454834,0.000661
1789.937037,0.001238
1790.419240,0.002336
1790.901443,0.004103
1791.383646,0.004597
1791.865849,0.003965
1792.348051,0.005853
1792.830254,0.007774
1793.312457,0.004810
1793.794660,0.001500
1794.276863,0.000661
1794.759066,0.000601
1795.241269,0.000746
1795.723471,0.001114
1796.205674,0.001181
1796.687877,0.000826
1797.170080,0.000442
1797.652283,0.000384
1798.134486,0.000659
1798.616689,0.001048
1799.098892,0.001882
1799.581094,0.003217
1800.063297,0.003052
1800.545500,0.001592
1801.027703,0.001476
1801.509906,0.001924
1801.992109,0.001740
1802.474312,0.001717
1802.956514,0.001211
1803.438717,0.000209
1803.920920,-0.000128
1804.403123,-0.000093
1804.885326,-0.000080
1805.367529,-0.000007
1805.849732,-0.000062
1806.331935,-0.000186
1806.814137,-0.000184
1807.296340,0.000093
1807.778543,0.000465
1808.260746,0.000443
1808.742949,0.000278
1809.225152,0.000344
1809.707355,0.000487
1810.189557,0.001183
1810.671760,0.002116
1811.153963,0.001634
1811.636166,0.000511
1812.118369,0.000303
1812.600572,0.000268
1813.082775,-0.000066
1813.564978,-0.000161
1814.047180,-0.000120
1814.529383,-0.000123
1815.011586,-0.000098
1815.493789,-0.000119
1815.975992,-0.000119
1816.458195,-0.000021
1816.940398,0.000136
1817.422600,0.000302
1817.904803,0.000189
1818.387006,-0.000147
1818.869209,-0.000241
1819.351412,-0.000205
1819.833615,-0.000221
1820.315818,-0.000143
1820.798021,-0.000109
1821.280223,-0.000122
1821.762426,-0.000032
1822.244629,0.000159
1822.726832,0.000420
1823.209035,0.000581
1823.691238,0.000867
1824.173441,0.001340
1824.655643,0.002224
1825.137846,0.003822
1825.620049,0.003740
1826.102252,0.001638
1826.584455,0.000575
1827.066658,0.000576
1827.548861,0.000769
1828.031063,0.001205
1828.513266,0.001949
1828.995469,0.003108
1829.477672,0.004086
1829.959875,0.005005
1830.442078,0.004767
1830.924281,0.002366
1831.406484,0.000628
1831.888686,0.000406
1832.370889,0.000273
1832.853092,0.000185
1833.335295,0.000220
1833.817498,0.000121
1834.299701,0.000086
1834.781904,0.000123
1835.264106,0.000086
1835.746309,0.000098
1836.228512,0.000182
1836.710715,0.000370
1837.192918,0.000622
1837.675121,0.000511
1838.157324,0.000212
1838.639527,0.000092
1839.121729,0.000084
1839.603932,0.000117
1840.086135,0.000106
1840.568338,0.000142
1841.050541,0.000292
1841.532744,0.000685
1842.014947,0.001296
1842.497149,0.001889
1842.979352,0.002446
1843.461555,0.003484
1843.943758,0.006301
1844.425961,0.008203
1844.908164,0.005164
1845.390367,0.001891
1845.872570,0.001078
1846.354772,0.000871
1846.836975,0.000719
1847.319178,0.000908
1847.801381,0.001219
1848.283584,0.000992
1848.765787,0.000346
1849.247990,0.000079
1849.730192,0.000030
1850.212395,0.000026
1850.694598,0.000028
1851.176801,-0.000048
1851.659004,-0.000061
1852.141207,-0.000057
1852.623410,-0.000037
1853.105613,0.000026
1853.587815,0.000075
1854.070018,0.000019
1854.552221,-0.000083
1855.034424,-0.000093
1855.516627,-0.000093
1855.998830,-0.000068
1856.481033,0.000018
1856.963235,0.000062
1857.445438,0.000043
1857.927641,0.000015
1858.409844,0.000030
1858.892047,0.000055
1859.374250,0.000020
1859.856453,-0.000034
1860.338655,0.000027
1860.820858,0.000165
1861.303061,0.000195
1861.785264,0.000107
1862.267467,0.000014
1862.749670,-0.000032
1863.231873,0.000005
1863.714076,0.000132
1864.196278,0.000270
1864.678481,0.000338
1865.160684,0.000364
1865.642887,0.000551
1866.125090,0.001125
1866.607293,0.001641
1867.089496,0.001755
1867.571698,0.002537
1868.053901,0.003514
1868.536104,0.003280
1869.018307,0.003758
1869.500510,0.004594
1869.982713,0.002870
1870.464916,0.000910
1870.947119,0.000545
1871.429321,0.000331
1871.911524,0.000037
1872.393727,-0.000011
1872.875930,-0.000036
1873.358133,-0.000081
1873.840336,-0.000082
1874.322539,-0.000023
1874.804741,0.000003
1875.286944,0.000028
1875.769147,0.000093
1876.251350,0.000086
1876.733553,0.000005
1877.215756,-0.000040
1877.697959,-0.000045
1878.180162,-0.000067
1878.662364,-0.000054
1879.144567,0.000010
1879.626770,0.000021
1880.108973,-0.000069
1880.591176,-0.000104
1881.073379,-0.000044
1881.555582,-0.000046
1882.037784,-0.000063
1882.519987,-0.000011
1883.002190,0.000042
1883.484393,0.000104
1883.966596,0.000198
1884.448799,0.000268
1884.931002,0.000238
1885.413204,0.000145
1885.895407,0.000070
1886.377610,0.000077
1886.859813,0.000216
1887.342016,0.000364
1887.824219,0.000552
1888.306422,0.000760
1888.788625,0.001029
1889.270827,0.001968
1889.753030,0.002659
1890.235233,0.001703
1890.717436,0.000568
1891.199639,0.000284
1891.681842,0.000165
1892.164045,0.000139
1892.646247,0.000213
1893.128450,0.000263
1893.610653,0.000455
1894.092856,0.000588
1894.575059,0.000651
1895.057262,0.000951
1895.539465,0.000951
1896.021668,0.000429
1896.503870,0.000196
1896.986073,0.000281
1897.468276,0.000237
1897.950479,0.000099
1898.432682,0.000025
1898.914885,0.000055
1899.397088,0.000053
1899.879290,0.000098
1900.361493,0.000245
1900.843696,0.000225
1901.325899,0.000090
1901.808102,0.000075
1902.290305,0.000134
1902.772508,0.000232
1903.254711,0.000351
1903.736913,0.000362
1904.219116,0.000323
1904.701319,0.000278
1905.183522,0.000160
1905.665725,0.000152
1906.147928,0.000312
1906.630131,0.000405
1907.112333,0.000404
1907.594536,0.000477
1908.076739,0.000596
1908.558942,0.000612
1909.041145,0.000630
1909.523348,0.000892
1910.005551,0.001114
1910.487754,0.000800
1910.969956,0.000309
1911.452159,0.000191
1911.934362,0.000265
1912.416565,0.000228
1912.898768,0.000147
1913.380971,0.000114
1913.863174,0.000085
1914.345376,0.000115
1914.827579,0.000249
1915.309782,0.000424
1915.791985,0.000525
1916.274188,0.000695
1916.756391,0.001018
1917.238594,0.001482
1917.720796,0.002788
1918.202999,0.003813
1918.685202,0.002465
1919.167405,0.000807
1919.649608,0.000445
1920.131811,0.000341
1920.614014,0.000360
1921.096217,0.000551
1921.578419,0.000720
1922.060622,0.001068
1922.542825,0.001445
1923.025028,0.001679
1923.507231,0.001471
1923.989434,0.000791
1924.471637,0.000315
1924.953839,0.000204
1925.436042,0.000146
1925.918245,0.000150
1926.400448,0.000187
1926.882651,0.000167
1927.364854,0.000134
1927.847057,0.000075
1928.329260,0.000040
1928.811462,0.000088
1929.293665,0.000127
1929.775868,0.000146
1930.258071,0.000119
1930.740274,0.000021
1931.222477,0.000013
1931.704680,0.000059
1932.186882,0.000020
1932.669085,0.000046
1933.151288,0.000112
1933.633491,0.000061
1934.115694,0.000064
1934.597897,0.000121
1935.080100,0.000077
1935.562303,0.000028
1936.044505,-0.000002
1936.526708,0.000015
1937.008911,0.000078
1937.491114,0.000105
1937.973317,0.000160
1938.455520,0.000172
1938.937723,0.000130
1939.419925,0.000167
1939.902128,0.000252
1940.384331,0.000334
1940.866534,0.000539
1941.348737,0.000836
1941.830940,0.001131
1942.313143,0.001866
1942.795346,0.002407
1943.277548,0.001579
1943.759751,0.000579
1944.241954,0.000347
1944.724157,0.000345
1945.206360,0.000422
1945.688563,0.000468
1946.170766,0.000440
1946.652968,0.000384
1947.135171,0.000220
1947.617374,0.000142
1948.099577,0.000147
1948.581780,0.000110
1949.063983,0.000084
1949.546186,0.000103
1950.028388,0.000130
1950.510591,0.000118
1950.992794,0.000092
1951.474997,0.000077
1951.957200,0.000084
1952.439403,0.000098
1952.921606,0.000097
1953.403809,0.000089
1953.886011,0.000057
1954.368214,0.000078
1954.850417,0.000195
1955.332620,0.000215
1955.814823,0.000109
1956.297026,0.000102
1956.779229,0.000142
1957.261431,0.000098
1957.743634,0.000099
1958.225837,0.000142
1958.708040,0.000145
1959.190243,0.000158
1959.672446,0.000181
1960.154649,0.000141
1960.636852,0.000051
1961.119054,0.000063
1961.601257,0.000123
1962.083460,0.000079
1962.565663,0.000061
1963.047866,0.000115
1963.530069,0.000186
1964.012272,0.000230
1964.494474,0.000182
1964.976677,0.000145
1965.458880,0.000219
1965.941083,0.000404
1966.423286,0.000525
1966.905489,0.000614
1967.387692,0.000871
1967.869895,0.000803
1968.352097,0.000354
1968.834300,0.000149
1969.316503,0.000139
1969.798706,0.000090
1970.280909,-0.000015
1970.763112,-0.000063
1971.245315,0.000007
1971.727517,-0.000002
1972.209720,-0.000032
1972.691923,0.000036
1973.174126,0.000132
1973.656329,0.000176
1974.138532,0.000087
1974.620735,0.000018
1975.102938,0.000068
1975.585140,0.000077
1976.067343,0.000007
1976.549546,-0.000027
1977.031749,0.000003
1977.513952,0.000048
1977.996155,0.000074
1978.478358,0.000017
1978.960560,-0.000054
1979.442763,0.000012
1979.924966,0.000117
1980.407169,0.000113
1980.889372,0.000052
1981.371575,0.000036
1981.853778,0.000058
1982.335980,0.000073
1982.818183,0.000075
1983.300386,0.000079
1983.782589,0.000076
1984.264792,0.000055
1984.746995,0.000044
1985.229198,0.000067
1985.711401,0.000105
1986.193603,0.000104
1986.675806,0.000069
1987.158009,0.000088
1987.640212,0.000172
1988.122415,0.000328
1988.604618,0.000471
1989.086821,0.000385
1989.569023,0.000234
1990.051226,0.000303
1990.533429,0.000405
1991.015632,0.000452
1991.497835,0.000816
1991.980038,0.001293
1992.462241,0.001070
1992.944444,0.000426
1993.426646,0.000168
1993.908849,0.000081
1994.391052,-0.000097
1994.873255,-0.000130
1995.355458,-0.000016
1995.837661,0.000074
1996.319864,0.000055
1996.802066,0.000008
1997.284269,0.000024
1997.766472,0.000026
1998.248675,0.000048
1998.730878,0.000101
1999.213081,0.000054
1999.695284,0.000001
2000.177487,0.000040
2000.659689,0.000047
2001.141892,-0.000012
2001.624095,-0.000106
2002.106298,-0.000158
2002.588501,-0.000057
2003.070704,0.000040
2003.552907,0.000004
2004.035109,-0.000018
2004.517312,0.000034
2004.999515,0.000109
2005.481718,0.000131
2005.963921,0.000058
2006.446124,0.000002
2006.928327,0.000048
2007.410529,0.000120
2007.892732,0.000131
2008.374935,0.000130
2008.857138,0.000124
2009.339341,0.000095
2009.821544,0.000094
2010.303747,0.000060
2010.785950,0.000001
2011.268152,0.000011
2011.750355,0.000051
2012.232558,0.000084
2012.714761,0.000077
2013.196964,0.000029
2013.679167,0.000039
2014.161370,0.000109
2014.643572,0.000159
2015.125775,0.000187
2015.607978,0.000176
2016.090181,0.000207
2016.572384,0.000468
2017.054587,0.000638
2017.536790,0.000375
2018.018993,0.000102
2018.501195,0.000110
2018.983398,0.000159
2019.465601,0.000090
2019.947804,0.000000
2020.430007,0.000014
2020.912210,0.000057
2021.394413,0.000094
2021.876615,0.000125
2022.358818,0.000061
2022.841021,0.000037
2023.323224,0.000157
2023.805427,0.000184
2024.287630,0.000068
2024.769833,0.000060
2025.252036,0.000114
2025.734238,0.000079
2026.216441,0.000098
2026.698644,0.000117
2027.180847,0.000031
2027.663050,-0.000032
2028.145253,-0.000085
2028.627456,-0.000091
2029.109658,-0.000011
2029.591861,0.000007
2030.074064,-0.000046
2030.556267,-0.000084
2031.038470,-0.000025
2031.520673,0.000077
2032.002876,0.000077
2032.485079,0.000046
2032.967281,0.000055
2033.449484,0.000041
2033.931687,0.000006
2034.413890,-0.000015
2034.896093,-0.000034
2035.378296,-0.000049
2035.860499,-0.000011
2036.342701,0.000048
2036.824904,0.000070
2037.307107,0.000059
2037.789310,0.000043
2038.271513,0.000031
2038.753716,-0.000041
2039.235919,-0.000098
2039.718121,-0.000020
2040.200324,0.000066
2040.682527,0.000112
2041.164730,0.000227
2041.646933,0.000281
2042.129136,0.000148
2042.611339,0.000027
2043.093542,0.000042
2043.575744,0.000076
2044.057947,0.000116
2044.540150,0.000158
2045.022353,0.000147
2045.504556,0.000126
2045.986759,0.000104
2046.468962,0.000100
2046.951164,0.000106
2047.433367,0.000045
2047.915570,0.000005
2048.397773,0.000018
2048.879976,0.000002
2049.362179,0.000044
2049.844382,0.000114
2050.326585,0.000066
2050.808787,0.000017
2051.290990,0.000061
2051.773193,0.000055
2052.255396,-0.000060
2052.737599,-0.000137
2053.219802,-0.000099
2053.702005,-0.000036
2054.184207,0.000030
2054.666410,0.000091
2055.148613,0.000041
2055.630816,-0.000065
2056.113019,-0.000093
2056.595222,-0.000043
2057.077425,0.000040
2057.559628,0.000090
2058.041830,0.000051
2058.524033,-0.000048
2059.006236,-0.000094
2059.488439,-0.000022
2059.970642,0.000063
2060.452845,0.000097
2060.935048,0.000117
2061.417250,0.000120
2061.899453,0.000091
2062.381656,0.000044
2062.863859,0.000046
2063.346062,0.000087
2063.828265,0.000080
2064.310468,0.000121
2064.792671,0.000264
2065.274873,0.000281
2065.757076,0.000128
2066.239279,0.000061
2066.721482,0.000120
2067.203685,0.000123
2067.685888,0.000019
2068.168091,-0.000048
2068.650293,-0.000001
2069.132496,0.000027
2069.614699,0.000044
2070.096902,0.000131
2070.579105,0.000091
2071.061308,-0.000068
2071.543511,-0.000063
2072.025713,0.000008
2072.507916,-0.000003
2072.990119,0.000024
2073.472322,0.000030
2073.954525,-0.000003
2074.436728,0.000013
2074.918931,0.000005
2075.401134,0.000016
2075.883336,0.000091
2076.365539,0.000110
2076.847742,0.000088
2077.329945,0.000068
2077.812148,-0.000001
2078.294351,-0.000055
2078.776554,-0.000036
2079.258756,-0.000017
2079.740959,0.000000
2080.223162,0.000047
2080.705365,0.000022
2081.187568,-0.000066
2081.669771,-0.000092
2082.151974,-0.000090
2082.634177,-0.000079
2083.116379,-0.000034
2083.598582,-0.000040
2084.080785,-0.000081
2084.562988,-0.000111
2085.045191,-0.000134
2085.527394,-0.000095
2086.009597,-0.000016
2086.491799,0.000068
2086.974002,0.000088
2087.456205,0.000028
2087.938408,0.000015
2088.420611,0.000026
2088.902814,-0.000016
2089.385017,-0.000063
2089.867220,-0.000013
2090.349422,0.000083
2090.831625,0.000065
2091.313828,0.000017
2091.796031,0.000006
2092.278234,0.000000
2092.760437,0.000008
2093.242640,-0.000043
2093.724842,-0.000043
2094.207045,0.000031
2094.689248,-0.000012
2095.171451,-0.000089
2095.653654,-0.000086
2096.135857,-0.000036
2096.618060,0.000024
2097.100262,0.000001
2097.582465,-0.000026
2098.064668,0.000018
2098.546871,0.000009
2099.029074,-0.000041
2099.511277,-0.000043
2099.993480,-0.000022
2100.475683,-0.000008
2100.957885,-0.000021
2101.440088,-0.000050
2101.922291,-0.000026
2102.404494,0.000041
2102.886697,0.000056
2103.368900,0.000025
2103.851103,0.000004
2104.333305,-0.000005
2104.815508,-0.000029
2105.297711,-0.000079
2105.779914,-0.000111
2106.262117,-0.000104
2106.744320,-0.000039
2107.226523,0.000018
2107.708726,-0.000042
2108.190928,-0.000087
2108.673131,-0.000045
2109.155334,-0.000024
2109.637537,-0.000022
2110.119740,-0.000069
2110.601943,-0.000108
2111.084146,-0.000021
2111.566348,0.000077
2112.048551,0.000089
2112.530754,0.000027
2113.012957,-0.000060
2113.495160,-0.000068
2113.977363,-0.000038
2114.459566,-0.000060
2114.941769,-0.000077
2115.423971,-0.000071
2115.906174,-0.000045
2116.388377,-0.000014
2116.870580,-0.000061
2117.352783,-0.000085
2117.834986,-0.000042
2118.317189,-0.000056
2118.799391,-0.000059
2119.281594,-0.000064
2119.763797,-0.000119
2120.246000,-0.000094
2120.728203,-0.000041
2121.210406,-0.000029
2121.692609,-0.000011
2122.174812,-0.000062
2122.657014,-0.000106
2123.139217,-0.000066
2123.621420,-0.000075
2124.103623,-0.000081
2124.585826,-0.000016
2125.068029,0.000001
2125.550232,-0.000057
2126.032434,-0.000121
2126.514637,-0.000118
2126.996840,-0.000065
2127.479043,-0.000036
2127.961246,-0.000037
2128.443449,-0.000047
2128.925652,-0.000038
2129.407854,-0.000021
2129.890057,-0.000046
2130.372260,-0.000087
2130.854463,-0.000093
2131.336666,-0.000071
2131.818869,-0.000013
2132.301072,-0.000004
2132.783275,-0.000091
2133.265477,-0.000099
2133.747680,-0.000049
2134.229883,-0.000053
2134.712086,-0.000067
2135.194289,-0.000095
2135.676492,-0.000071
2136.158695,-0.000023
2136.640897,-0.000069
2137.123100,-0.000104
2137.605303,-0.000066
2138.087506,-0.000076
2138.569709,-0.000130
2139.051912,-0.000086
2139.534115,-0.000015
2140.016318,-0.000040
2140.498520,-0.000065
2140.980723,-0.000036
2141.462926,-0.000014
2141.945129,-0.000033
2142.427332,-0.000081
2142.909535,-0.000145
2143.391738,-0.000134
2143.873940,-0.000019
2144.356143,0.000011
2144.838346,-0.000060
2145.320549,-0.000084
2145.802752,-0.000049
2146.284955,-0.000032
2146.767158,-0.000055
2147.249361,-0.000036
2147.731563,-0.000028
2148.213766,-0.000087
2148.695969,-0.000095
2149.178172,-0.000067
2149.660375,-0.000108
2150.142578,-0.000148
2150.624781,-0.000120
2151.106983,-0.000105
2151.589186,-0.000115
2152.071389,-0.000091
2152.553592,-0.000066
2153.035795,-0.000048
2153.517998,-0.000017
2154.000201,0.000002
2154.482404,0.000014
2154.964606,0.000001
2155.446809,-0.000094
2155.929012,-0.000180
2156.411215,-0.000150
2156.893418,-0.000120
2157.375621,-0.000151
2157.857824,-0.000145
2158.340026,-0.000089
2158.822229,-0.000060
2159.304432,-0.000049
2159.786635,-0.000047
2160.268838,-0.000068
2160.751041,-0.000039
2161.233244,-0.000002
2161.715446,-0.000055
2162.197649,-0.000099
2162.679852,-0.000096
2163.162055,-0.000142
2163.644258,-0.000168
2164.126461,-0.000089
2164.608664,-0.000065
2165.090867,-0.000111
2165.573069,-0.000064
2166.055272,-0.000014
2166.537475,-0.000026
2167.019678,-0.000009
2167.501881,0.000004
2167.984084,-0.000039
2168.466287,-0.000167
2168.948489,-0.000262
2169.430692,-0.000165
2169.912895,-0.000057
2170.395098,-0.000074
2170.877301,-0.000077
2171.359504,-0.000051
2171.841707,-0.000080
2172.323910,-0.000101
2172.806112,-0.000046
2173.288315,-0.000051
2173.770518,-0.000105
2174.252721,-0.000114
2174.734924,-0.000173
2175.217127,-0.000180
2175.699330,-0.000119
2176.181532,-0.000116
2176.663735,-0.000040
2177.145938,0.000032
2177.628141,-0.000045
2178.110344,-0.000119
2178.592547,-0.000121
2179.074750,-0.000089
2179.556953,-0.000046
2180.039155,-0.000064
2180.521358,-0.000141
2181.003561,-0.000159
2181.485764,-0.000078
2181.967967,-0.000006
2182.450170,-0.000042
2182.932373,-0.000114
2183.414575,-0.000120
2183.896778,-0.000096
2184.378981,-0.000060
2184.861184,-0.000048
2185.343387,-0.000090
2185.825590,-0.000128
2186.307793,-0.000143
2186.789995,-0.000112
2187.272198,-0.000080
2187.754401,-0.000007
2188.236604,0.000127
2188.718807,0.000087
2189.201010,-0.000062
2189.683213,-0.000123
2190.165416,-0.000145
2190.647618,-0.000123
2191.129821,-0.000095
2191.612024,-0.000090
2192.094227,-0.000084
2192.576430,-0.000113
2193.058633,-0.000113
2193.540836,-0.000052
2194.023038,-0.000057
2194.505241,-0.000116
2194.987444,-0.000133
2195.469647,-0.000127
2195.951850,-0.000127
2196.434053,-0.000188
2196.916256,-0.000240
2197.398459,-0.000141
2197.880661,-0.000077
2198.362864,-0.000156
2198.845067,-0.000150
2199.327270,-0.000081
2199.809473,-0.000069
2200.291676,-0.000024
2200.773879,-0.000022
2201.256081,-0.000086
2201.738284,-0.000076
2202.220487,-0.000085
2202.702690,-0.000098
2203.184893,-0.000044
2203.667096,-0.000047
2204.149299,-0.000103
2204.631502,-0.000130
2205.113704,-0.000091
2205.595907,-0.000038
2206.078110,-0.000010
2206.560313,0.000017
2207.042516,-0.000026
2207.524719,-0.000091
2208.006922,-0.000074
2208.489124,-0.000063
2208.971327,-0.000099
2209.453530,-0.000106
2209.935733,-0.000088
2210.417936,-0.000070
2210.900139,-0.000032
2211.382342,-0.000034
2211.864545,-0.000071
2212.346747,-0.000052
2212.828950,-0.000043
2213.311153,-0.000078
2213.793356,-0.000062
2214.275559,-0.000051
2214.757762,-0.000103
2215.239965,-0.000093
2215.722167,-0.000061
2216.204370,-0.000106
2216.686573,-0.000112
2217.168776,-0.000109
2217.650979,-0.000162
2218.133182,-0.000163
2218.615385,-0.000132
2219.097587,-0.000154
2219.579790,-0.000189
2220.061993,-0.000174
2220.544196,-0.000144
2221.026399,-0.000111
2221.508602,-0.000086
2221.990805,-0.000169
2222.473008,-0.000253
2222.955210,-0.000201
2223.437413,-0.000161
2223.919616,-0.000209
2224.401819,-0.000243
2224.884022,-0.000195
2225.366225,-0.000093
2225.848428,-0.000054
2226.330630,-0.000068
2226.812833,-0.000012
2227.295036,-0.000005
2227.777239,-0.000094
2228.259442,-0.000096
2228.741645,-0.000099
2229.223848,-0.000171
2229.706051,-0.000139
2230.188253,-0.000048
2230.670456,-0.000045
2231.152659,-0.000092
2231.634862,-0.000093
2232.117065,-0.000059
2232.599268,-0.000064
2233.081471,-0.000085
2233.563673,-0.000077
2234.045876,-0.000087
2234.528079,-0.000117
2235.010282,-0.000138
2235.492485,-0.000131
2235.974688,-0.000039
2236.456891,0.000028
2236.939094,-0.000005
2237.421296,0.000019
2237.903499,0.000044
2238.385702,-0.000012
2238.867905,-0.000035
2239.350108,-0.000024
2239.832311,-0.000038
2240.314514,-0.000061
2240.796716,-0.000039
2241.278919,-0.000013
2241.761122,-0.000063
2242.243325,-0.000116
2242.725528,-0.000097
2243.207731,-0.000073
2243.689934,-0.000056
2244.172137,-0.000021
2244.654339,-0.000051
2245.136542,-0.000064
2245.618745,0.000015
2246.100948,0.000001
2246.583151,-0.000102
2247.065354,-0.000167
2247.547557,-0.000154
2248.029759,-0.000080
2248.511962,-0.000065
2248.994165,-0.000066
2249.476368,-0.000024
2249.958571,-0.000041
2250.440774,-0.000100
2250.922977,-0.000123
2251.405179,-0.000078
2251.887382,0.000029
2252.369585,0.000055
2252.851788,-0.000062
2253.333991,-0.000097
2253.816194,-0.000025
2254.298397,-0.000062
2254.780600,-0.000080
2255.262802,0.000031
2255.745005,0.000079
2256.227208,0.000026
2256.709411,-0.000012
2257.191614,0.000045
2257.673817,0.000105
2258.156020,0.000022
2258.638222,-0.000073
2259.120425,0.000003
2259.602628,0.000145
2260.084831,0.000097
2260.567034,-0.000035
2261.049237,0.000028
2261.531440,0.000095
2262.013643,-0.000001
2262.495845,-0.000045
2262.978048,0.000069
2263.460251,0.000141
2263.942454,0.000023
2264.424657,-0.000026
2264.906860,0.000094
2265.389063,0.000129
2265.871265,0.000089
2266.353468,0.000096
2266.835671,0.000188
2267.317874,0.000260
2267.800077,0.000192
2268.282280,0.000185
2268.764483,0.000247
2269.246686,0.000200
2269.728888,0.000193
2270.211091,0.000262
2270.693294,0.000225
2271.175497,0.000146
2271.657700,0.000171
2272.139903,0.000195
2272.622106,0.000121
2273.104308,0.000073
2273.586511,0.000142
2274.068714,0.000202
2274.550917,0.000135
2275.033120,0.000114
2275.515323,0.000170
2275.997526,0.000075
2276.479729,0.000015
2276.961931,0.000178
2277.444134,0.000235
2277.926337,0.000106
2278.408540,0.000077
2278.890743,0.000125
2279.372946,0.000104
2279.855149,0.000086
2280.337351,0.000104
2280.819554,0.000081
2281.301757,0.000029
2281.783960,0.000006
2282.266163,-0.000032
2282.748366,-0.000031
2283.230569,0.000091
2283.712771,0.000159
2284.194974,0.000160
2284.677177,0.000180
2285.159380,0.000123
2285.641583,0.000105
2286.123786,0.000201
2286.605989,0.000256
2287.088192,0.000281
2287.570394,0.000324
2288.052597,0.000332
2288.534800,0.000371
2289.017003,0.000458
2289.499206,0.000446
2289.981409,0.000423
2290.463612,0.000455
2290.945814,0.000438
2291.428017,0.000517
2291.910220,0.000654
2292.392423,0.000630
2292.874626,0.000603
2293.356829,0.000705
2293.839032,0.000815
2294.321235,0.000878
2294.803437,0.000874
2295.285640,0.000849
2295.767843,0.000968
2296.250046,0.001071
2296.732249,0.000938
2297.214452,0.000852
2297.696655,0.000997
2298.178857,0.001240
2298.661060,0.001335
2299.143263,0.001097
2299.625466,0.001002
2300.107669,0.001351
2300.589872,0.001672
2301.072075,0.001687
2301.554278,0.001493
2302.036480,0.001521
2302.518683,0.001955
2303.000886,0.002165
2303.483089,0.001895
2303.965292,0.001744
2304.447495,0.002187
2304.929698,0.002720
2305.411900,0.002555
2305.894103,0.002146
2306.376306,0.002417
2306.858509,0.003233
2307.340712,0.003549
2307.822915,0.003029
2308.305118,0.002884
2308.787320,0.003795
2309.269523,0.004548
2309.751726,0.004008
2310.233929,0.003311
2310.716132,0.004048
2311.198335,0.005352
2311.680538,0.005272
2312.162741,0.004295
2312.644943,0.004574
2313.127146,0.006226
2313.609349,0.006771
2314.091552,0.005542
2314.573755,0.005241
2315.055958,0.006949
2315.538161,0.007962
2316.020363,0.006567
2316.502566,0.005770
2316.984769,0.007673
2317.466972,0.009391
2317.949175,0.008126
2318.431378,0.006825
2318.913581,0.008652
2319.395784,0.011005
2319.877986,0.009778
2320.360189,0.007954
2320.842392,0.009737
2321.324595,0.012484
2321.806798,0.011236
2322.289001,0.009007
2322.771204,0.010753
2323.253406,0.013740
2323.735609,0.012267
2324.217812,0.009785
2324.700015,0.011626
2325.182218,0.014525
2325.664421,0.012707
2326.146624,0.010415
2326.628827,0.012663
2327.111029,0.015525
2327.593232,0.013426
2328.075435,0.011331
2328.557638,0.014187
2329.039841,0.016738
2329.522044,0.013653
2330.004247,0.012023
2330.486449,0.015604
2330.968652,0.017148
2331.450855,0.013507
2331.933058,0.013002
2332.415261,0.016852
2332.897464,0.016616
2333.379667,0.012785
2333.861870,0.013852
2334.344072,0.017640
2334.826275,0.015622
2335.308478,0.012769
2335.790681,0.015726
2336.272884,0.018300
2336.755087,0.014837
2337.237290,0.013727
2337.719492,0.017357
2338.201695,0.017048
2338.683898,0.013590
2339.166101,0.015355
2339.648304,0.018467
2340.130507,0.015516
2340.612710,0.013759
2341.094912,0.017086
2341.577115,0.017193
2342.059318,0.013634
2342.541521,0.014664
2343.023724,0.017020
2343.505927,0.014193
2343.988130,0.012723
2344.470333,0.015170
2344.952535,0.014162
2345.434738,0.011081
2345.916941,0.011818
2346.399144,0.012165
2346.881347,0.009317
2347.363550,0.008453
2347.845753,0.009173
2348.327955,0.007896
2348.810158,0.006531
2349.292361,0.006809
2349.774564,0.008036
2350.256767,0.009154
2350.738970,0.009507
2351.221173,0.011152
2351.703376,0.013569
2352.185578,0.013236
2352.667781,0.013650
2353.149984,0.016471
2353.632187,0.016097
2354.114390,0.015877
2354.596593,0.019127
2355.078796,0.018647
2355.560998,0.017458
2356.043201,0.020464
2356.525404,0.020025
2357.007607,0.018712
2357.489810,0.021596
2357.972013,0.020825
2358.454216,0.019628
2358.936419,0.022474
2359.418621,0.021156
2359.900824,0.020116
2360.383027,0.022586
2360.865230,0.021004
2361.347433,0.020868
2361.829636,0.022602
2362.311839,0.020361
2362.794041,0.020988
2363.276244,0.021706
2363.758447,0.019673
2364.240650,0.021096
2364.722853,0.020520
2365.205056,0.019348
2365.687259,0.020567
2366.169462,0.018883
2366.651664,0.018799
2367.133867,0.018854
2367.616070,0.017377
2368.098273,0.017992
2368.580476,0.017002
2369.062679,0.016361
2369.544882,0.016294
2370.027084,0.015086
2370.509287,0.015078
2370.991490,0.014302
2371.473693,0.013575
2371.955896,0.013145
2372.438099,0.012104
2372.920302,0.011631
2373.402504,0.010797
2373.884707,0.010142
2374.366910,0.009527
2374.849113,0.008618
2375.331316,0.007982
2375.813519,0.007185
2376.295722,0.006599
2376.777925,0.006068
2377.260127,0.005522
2377.742330,0.004960
2378.224533,0.004312
2378.706736,0.003983
2379.188939,0.003564
2379.671142,0.002988
2380.153345,0.002545
2380.635547,0.002245
2381.117750,0.002007
2381.599953,0.001730
2382.082156,0.001429
2382.564359,0.001099
2383.046562,0.000932
2383.528765,0.000845
2384.010968,0.000648
2384.493170,0.000496
2384.975373,0.000407
2385.457576,0.000227
2385.939779,0.000083
2386.421982,0.000183
2386.904185,0.000223
2387.386388,0.000082
2387.868590,0.000027
2388.350793,0.000043
2388.832996,0.000042
2389.315199,0.000019
2389.797402,-0.000038
2390.279605,-0.000051
2390.761808,-0.000007
2391.244011,-0.000016
2391.726213,-0.000019
2392.208416,0.000048
2392.690619,0.000074
2393.172822,-0.000010
2393.655025,-0.000078
2394.137228,-0.000016
2394.619431,0.000031
2395.101633,0.000030
2395.583836,0.000063
2396.066039,0.000064
2396.548242,0.000008
2397.030445,-0.000038
2397.512648,-0.000046
2397.994851,-0.000071
2398.477053,-0.000068
2398.959256,0.000025
2399.441459,0.000111
2399.923662,0.000115
2400.405865,0.000023
2400.888068,-0.000073
2401.370271,-0.000080
2401.852474,-0.000061
2402.334676,-0.000061
2402.816879,-0.000034
2403.299082,-0.000040
2403.781285,-0.000099
2404.263488,-0.000071
2404.745691,0.000021
2405.227894,0.000071
2405.710096,0.000082
2406.192299,0.000031
2406.674502,0.000011
2407.156705,0.000076
2407.638908,0.000055
2408.121111,-0.000003
2408.603314,0.000041
2409.085517,0.000056
2409.567719,0.000018
2410.049922,0.000020
2410.532125,0.000051
2411.014328,0.000068
2411.496531,0.000050
2411.978734,0.000033
2412.460937,0.000018
2412.943139,-0.000018
2413.425342,-0.000040
2413.907545,-0.000028
2414.389748,-0.000052
2414.871951,-0.000099
2415.354154,-0.000067
2415.836357,-0.000029
2416.318560,-0.000012
2416.800762,0.000055
2417.282965,0.000065
2417.765168,-0.000011
2418.247371,-0.000045
2418.729574,-0.000055
2419.211777,-0.000083
2419.693980,-0.000029
2420.176182,0.000053
2420.658385,0.000033
2421.140588,0.000004
2421.622791,0.000012
2422.104994,0.000024
2422.587197,0.000080
2423.069400,0.000128
2423.551603,0.000051
2424.033805,-0.000102
2424.516008,-0.000119
2424.998211,-0.000025
2425.480414,-0.000021
2425.962617,-0.000055
2426.444820,-0.000070
2426.927023,-0.000085
2427.409225,-0.000069
2427.891428,-0.000048
2428.373631,-0.000021
2428.855834,-0.000022
2429.338037,-0.000052
2429.820240,-0.000035
2430.302443,0.000003
2430.784645,-0.000001
2431.266848,-0.000063
2431.749051,-0.000076
2432.231254,0.000025
2432.713457,0.000030
2433.195660,-0.000044
2433.677863,-0.000006
2434.160066,-0.000013
2434.642268,-0.000071
2435.124471,-0.000042
2435.606674,-0.000068
2436.088877,-0.000073
2436.571080,0.000001
2437.053283,-0.000007
2437.535486,-0.000022
2438.017688,0.000001
2438.499891,0.000035
2438.982094,0.000038
2439.464297,-0.000060
2439.946500,-0.000124
2440.428703,-0.000078
2440.910906,-0.000010
2441.393109,0.000018
2441.875311,-0.000010
2442.357514,-0.000055
2442.839717,-0.000064
2443.321920,-0.000033
2443.804123,0.000010
2444.286326,0.000079
2444.768529,0.000132
2445.250731,0.000115
2445.732934,0.000051
2446.215137,-0.000020
2446.697340,-0.000034
2447.179543,-0.000016
2447.661746,-0.000018
2448.143949,-0.000024
2448.626152,-0.000006
2449.108354,0.000003
2449.590557,-0.000070
2450.072760,-0.000079
2450.554963,0.000012
2451.037166,-0.000001
2451.519369,-0.000054
2452.001572,-0.000028
2452.483774,0.000038
2452.965977,0.000071
2453.448180,0.000036
2453.930383,0.000016
2454.412586,0.000048
2454.894789,0.000121
2455.376992,0.000134
2455.859195,0.000039
2456.341397,0.000006
2456.823600,0.000045
2457.305803,0.000057
2457.788006,0.000027
2458.270209,-0.000047
2458.752412,-0.000105
2459.234615,-0.000131
2459.716817,-0.000115
2460.199020,-0.000068
2460.681223,-0.000080
2461.163426,-0.000105
2461.645629,-0.000084
2462.127832,-0.000078
2462.610035,-0.000096
2463.092237,-0.000059
2463.574440,0.000024
2464.056643,-0.000013
2464.538846,-0.000081
2465.021049,-0.000008
2465.503252,0.000068
2465.985455,0.000146
2466.467658,0.000164
2466.949860,-0.000006
2467.432063,-0.000072
2467.914266,-0.000057
2468.396469,-0.000169
2468.878672,-0.000125
2469.360875,0.000036
2469.843078,0.000028
2470.325280,0.000003
2470.807483,0.000039
2471.289686,0.000045
2471.771889,0.000064
2472.254092,0.000056
2472.736295,0.000005
2473.218498,-0.000006
2473.700701,-0.000002
2474.182903,-0.000041
2474.665106,-0.000070
2475.147309,-0.000016
2475.629512,-0.000007
2476.111715,-0.000051
2476.593918,0.000006
2477.076121,0.000052
2477.558323,-0.000012
2478.040526,-0.000120
2478.522729,-0.000171
2479.004932,-0.000088
2479.487135,-0.000023
2479.969338,-0.000078
2480.451541,-0.000095
2480.933744,0.000004
2481.415946,0.000050
2481.898149,-0.000031
2482.380352,-0.000040
2482.862555,0.000027
2483.344758,-0.000003
2483.826961,-0.000030
2484.309164,-0.000015
2484.791366,-0.000034
2485.273569,-0.000025
2485.755772,-0.000025
2486.237975,-0.000026
2486.720178,-0.000003
2487.202381,-0.000009
2487.684584,0.000013
2488.166786,0.000002
2488.648989,-0.000070
2489.131192,-0.000097
2489.613395,-0.000057
2490.095598,0.000022
2490.577801,0.000022
2491.060004,-0.000009
2491.542207,0.000038
2492.024409,0.000050
2492.506612,-0.000036
2492.988815,-0.000085
2493.471018,-0.000015
2493.953221,-0.000033
2494.435424,-0.000087
2494.917627,-0.000001
2495.399829,-0.000009
2495.882032,-0.000039
2496.364235,0.000020
2496.846438,0.000001
2497.328641,-0.000004
2497.810844,-0.000025
2498.293047,-0.000087
2498.775250,-0.000021
2499.257452,0.000005
2499.739655,-0.000094
2500.221858,-0.000075
2500.704061,0.000018
2501.186264,-0.000008
2501.668467,-0.000067
2502.150670,-0.000059
2502.632872,-0.000033
2503.115075,-0.000019
2503.597278,-0.000018
2504.079481,-0.000036
2504.561684,-0.000056
2505.043887,-0.000052
2505.526090,-0.000052
2506.008293,-0.000054
2506.490495,-0.000036
2506.972698,-0.000041
2507.454901,-0.000059
2507.937104,-0.000082
2508.419307,-0.000135
2508.901510,-0.000128
2509.383713,-0.000070
2509.865915,-0.000107
2510.348118,-0.000121
2510.830321,-0.000013
2511.312524,0.000051
2511.794727,0.000010
2512.276930,-0.000080
2512.759133,-0.000103
2513.241336,-0.000049
2513.723538,-0.000034
2514.205741,0.000016
2514.687944,0.000045
2515.170147,-0.000053
2515.652350,-0.000077
2516.134553,-0.000069
2516.616756,-0.000121
2517.098958,-0.000067
2517.581161,-0.000006
2518.063364,-0.000036
2518.545567,0.000000
2519.027770,0.000043
2519.509973,-0.000020
2519.992176,-0.000078
2520.474378,-0.000073
2520.956581,-0.000058
2521.438784,-0.000032
2521.920987,-0.000038
2522.403190,-0.000064
2522.885393,0.000001
2523.367596,0.000037
2523.849799,-0.000063
2524.332001,-0.000128
2524.814204,-0.000101
2525.296407,-0.000060
2525.778610,-0.000000
2526.260813,0.000053
2526.743016,0.000016
2527.225219,-0.000074
2527.707421,-0.000076
2528.189624,-0.000004
2528.671827,0.000032
2529.154030,0.000020
2529.636233,-0.000022
2530.118436,-0.000043
2530.600639,-0.000016
2531.082842,0.000006
2531.565044,-0.000040
2532.047247,-0.000137
2532.529450,-0.000126
2533.011653,-0.000006
2533.493856,0.000019
2533.976059,0.000001
2534.458262,0.000034
2534.940464,0.000009
2535.422667,-0.000062
2535.904870,-0.000126
2536.387073,-0.000169
2536.869276,-0.000119
2537.351479,-0.000017
2537.833682,-0.000009
2538.315885,-0.000088
2538.798087,-0.000089
2539.280290,-0.000059
2539.762493,-0.000120
2540.244696,-0.000082
2540.726899,0.000062
2541.209102,0.000061
2541.691305,-0.000044
2542.173507,-0.000088
2542.655710,-0.000085
2543.137913,-0.000114
2543.620116,-0.000089
2544.102319,0.000001
2544.584522,-0.000018
2545.066725,-0.000079
2545.548928,-0.000101
2546.031130,-0.000124
2546.513333,-0.000076
2546.995536,-0.000021
2547.477739,-0.000049
2547.959942,-0.000060
2548.442145,-0.000007
2548.924348,-0.000013
2549.406550,-0.000066
2549.888753,-0.000034
2550.370956,0.000014
2550.853159,0.000031
2551.335362,0.000020
2551.817565,-0.000044
2552.299768,-0.000039
2552.781970,0.000063
2553.264173,0.000079
2553.746376,-0.000009
2554.228579,-0.000031
2554.710782,-0.000029
2555.192985,-0.000081
2555.675188,-0.000094
2556.157391,-0.000078
2556.639593,-0.000054
2557.121796,-0.000048
2557.603999,-0.000093
2558.086202,-0.000149
2558.568405,-0.000188
2559.050608,-0.000143
2559.532811,-0.000082
2560.015013,-0.000097
2560.497216,-0.000145
2560.979419,-0.000191
2561.461622,-0.000173
2561.943825,-0.000149
2562.426028,-0.000120
2562.908231,-0.000072
2563.390434,-0.000088
2563.872636,-0.000016
2564.354839,0.000043
2564.837042,-0.000055
2565.319245,-0.000054
2565.801448,-0.000028
2566.283651,-0.000091
2566.765854,-0.000064
2567.248056,-0.000016
2567.730259,-0.000051
2568.212462,-0.000092
2568.694665,-0.000088
2569.176868,-0.000089
2569.659071,-0.000095
2570.141274,-0.000061
2570.623477,-0.000083
2571.105679,-0.000140
2571.587882,-0.000112
2572.070085,-0.000117
2572.552288,-0.000130
2573.034491,-0.000020
2573.516694,0.000045
2573.998897,0.000015
2574.481099,0.000014
2574.963302,0.000009
2575.445505,-0.000007
2575.927708,0.000004
2576.409911,0.000042
2576.892114,0.000091
2577.374317,0.000111
2577.856520,0.000128
2578.338722,0.000131
2578.820925,0.000074
2579.303128,0.000025
2579.785331,0.000031
2580.267534,0.000062
2580.749737,0.000119
2581.231940,0.000123
2581.714142,-0.000017
2582.196345,-0.000166
2582.678548,-0.000150
2583.160751,-0.000017
2583.642954,0.000034
2584.125157,-0.000056
2584.607360,-0.000111
2585.089562,-0.000110
2585.571765,-0.000114
2586.053968,-0.000044
2586.536171,-0.000004
2587.018374,-0.000091
2587.500577,-0.000074
2587.982780,0.000034
2588.464983,-0.000013
2588.947185,-0.000048
2589.429388,0.000055
2589.911591,0.000051
2590.393794,-0.000041
2590.875997,-0.000083
2591.358200,-0.000118
2591.840403,-0.000135
2592.322605,-0.000129
2592.804808,-0.000076
2593.287011,-0.000004
2593.769214,-0.000006
2594.251417,-0.000004
2594.733620,0.000003
2595.215823,-0.000060
2595.698026,-0.000082
2596.180228,-0.000054
2596.662431,-0.000049
2597.144634,-0.000005
2597.626837,0.000059
2598.109040,0.000070
2598.591243,0.000023
2599.073446,-0.000037
2599.555648,-0.000047
2600.037851,-0.000027
2600.520054,-0.000061
2601.002257,-0.000112
2601.484460,-0.000110
2601.966663,-0.000028
2602.448866,0.000087
2602.931069,0.000092
2603.413271,0.000029
2603.895474,0.000010
2604.377677,-0.000029
2604.859880,-0.000022
2605.342083,0.000044
2605.824286,-0.000002
2606.306489,-0.000103
2606.788691,-0.000126
2607.270894,-0.000107
2607.753097,-0.000040
2608.235300,0.000079
2608.717503,0.000080
2609.199706,-0.000044
2609.681909,-0.000057
2610.164111,0.000054
2610.646314,0.000084
2611.128517,-0.000002
2611.610720,-0.000050
2612.092923,-0.000046
2612.575126,-0.000082
2613.057329,-0.000098
2613.539532,-0.000056
2614.021734,-0.000070
2614.503937,-0.000095
2614.986140,-0.000012
2615.468343,0.000044
2615.950546,0.000006
2616.432749,-0.000010
2616.914952,-0.000012
2617.397154,-0.000006
2617.879357,0.000025
2618.361560,0.000028
2618.843763,0.000002
2619.325966,0.000000
2619.808169,0.000015
2620.290372,-0.000004
2620.772575,-0.000037
2621.254777,0.000000
2621.736980,0.000068
2622.219183,0.000034
2622.701386,-0.000009
2623.183589,0.000003
2623.665792,-0.000051
2624.147995,-0.000126
2624.630197,-0.000127
2625.112400,-0.000057
2625.594603,-0.000030
2626.076806,-0.000068
2626.559009,-0.000060
2627.041212,-0.000097
2627.523415,-0.000126
2628.005618,-0.000058
2628.487820,-0.000077
2628.970023,-0.000158
2629.452226,-0.000139
2629.934429,-0.000038
2630.416632,0.000017
2630.898835,-0.000015
2631.381038,-0.000053
2631.863240,-0.000052
2632.345443,-0.000023
2632.827646,-0.000041
2633.309849,-0.000100
2633.792052,-0.000127
2634.274255,-0.000139
2634.756458,-0.000073
2635.238661,-0.000016
2635.720863,-0.000094
2636.203066,-0.000126
2636.685269,-0.000100
2637.167472,-0.000093
2637.649675,-0.000004
2638.131878,0.000076
2638.614081,0.000041
2639.096283,0.000043
2639.578486,0.000089
2640.060689,0.000030
2640.542892,-0.000024
2641.025095,-0.000031
2641.507298,-0.000103
2641.989501,-0.000138
2642.471703,-0.000098
2642.953906,-0.000100
2643.436109,-0.000090
2643.918312,0.000013
2644.400515,0.000079
2644.882718,0.000037
2645.364921,-0.000001
2645.847124,-0.000032
2646.329326,-0.000050
2646.811529,-0.000044
2647.293732,-0.000049
2647.775935,-0.000014
2648.258138,-0.000005
2648.740341,-0.000017
2649.222544,0.000053
2649.704746,0.000063
2650.186949,-0.000023
2650.669152,-0.000002
2651.151355,0.000081
2651.633558,0.000047
2652.115761,0.000000
2652.597964,0.000029
2653.080167,-0.000012
2653.562369,-0.000079
2654.044572,-0.000056
2654.526775,-0.000071
2655.008978,-0.000139
2655.491181,-0.000106
2655.973384,-0.000020
2656.455587,-0.000014
2656.937789,-0.000103
2657.419992,-0.000179
2657.902195,-0.000136
2658.384398,-0.000046
2658.866601,-0.000041
2659.348804,-0.000087
2659.831007,-0.000110
2660.313210,-0.000087
2660.795412,-0.000014
2661.277615,0.000017
2661.759818,0.000007
2662.242021,0.000032
2662.724224,-0.000017
2663.206427,-0.000104
2663.688630,-0.000069
2664.170832,-0.000041
2664.653035,-0.000083
2665.135238,-0.000093
2665.617441,-0.000084
2666.099644,-0.000015
2666.581847,0.000018
2667.064050,-0.000084
2667.546253,-0.000039
2668.028455,0.000040
2668.510658,-0.000048
2668.992861,-0.000009
2669.475064,0.000035
2669.957267,-0.000023
2670.439470,0.000016
2670.921673,0.000015
2671.403875,-0.000018
2671.886078,-0.000021
2672.368281,-0.000067
2672.850484,-0.000076
2673.332687,-0.000065
2673.814890,-0.000049
2674.297093,0.000041
2674.779295,0.000129
2675.261498,0.000083
2675.743701,-0.000066
2676.225904,-0.000112
2676.708107,-0.000015
2677.190310,0.000031
2677.672513,0.000001
2678.154716,-0.000024
2678.636918,-0.000067
2679.119121,-0.000124
2679.601324,-0.000129
2680.083527,-0.000083
2680.565730,-0.000052
2681.047933,-0.000056
2681.530136,-0.000071
2682.012338,-0.000056
2682.494541,-0.000001
2682.976744,0.000002
2683.458947,-0.000049
2683.941150,-0.000020
2684.423353,0.000018
2684.905556,-0.000036
2685.387759,-0.000064
2685.869961,-0.000038
2686.352164,-0.000028
2686.834367,-0.000049
2687.316570,-0.000095
2687.798773,-0.000128
2688.280976,-0.000130
2688.763179,-0.000093
2689.245381,-0.000047
2689.727584,-0.000055
2690.209787,-0.000065
2690.691990,-0.000047
2691.174193,0.000015
2691.656396,0.000094
2692.138599,0.000042
2692.620802,-0.000033
2693.103004,0.000021
2693.585207,0.000070
2694.067410,0.000029
2694.549613,-0.000036
2695.031816,-0.000034
2695.514019,0.000035
2695.996222,0.000069
2696.478424,0.000024
2696.960627,-0.000045
2697.442830,-0.000034
2697.925033,0.000042
2698.407236,0.000039
2698.889439,-0.000038
2699.371642,-0.000032
2699.853844,0.000033
2700.336047,0.000026
2700.818250,-0.000015
2701.300453,-0.000061
2701.782656,-0.000094
2702.264859,-0.000025
2702.747062,0.000022
2703.229265,-0.000026
2703.711467,-0.000023
2704.193670,-0.000023
2704.675873,-0.000099
2705.158076,-0.000086
2705.640279,0.000049
2706.122482,0.000083
2706.604685,-0.000009
2707.086887,-0.000016
2707.569090,0.000006
2708.051293,-0.000003
2708.533496,0.000062
2709.015699,0.000078
2709.497902,-0.000011
2709.980105,-0.000050
2710.462308,-0.000049
2710.944510,-0.000094
2711.426713,-0.000126
2711.908916,-0.000072
2712.391119,-0.000001
2712.873322,-0.000022
2713.355525,-0.000080
2713.837728,-0.000053
2714.319930,0.000003
2714.802133,0.000022
2715.284336,0.000057
2715.766539,0.000056
2716.248742,0.000023
2716.730945,0.000041
2717.213148,0.000045
2717.695351,0.000009
2718.177553,-0.000017
2718.659756,-0.000042
2719.141959,-0.000059
2719.624162,-0.000031
2720.106365,0.000013
2720.588568,0.000042
2721.070771,0.000044
2721.552973,-0.000004
2722.035176,-0.000047
2722.517379,-0.000031
2722.999582,0.000019
2723.481785,0.000016
2723.963988,-0.000060
2724.446191,-0.000071
2724.928394,0.000000
2725.410596,0.000031
2725.892799,-0.000028
2726.375002,-0.000085
2726.857205,-0.000041
2727.339408,0.000006
2727.821611,0.000002
2728.303814,-0.000024
2728.786016,-0.000125
2729.268219,-0.000185
2729.750422,-0.000111
2730.232625,-0.000081
2730.714828,-0.000108
2731.197031,-0.000054
2731.679234,0.000042
2732.161436,0.000116
2732.643639,0.000107
2733.125842,0.000006
2733.608045,-0.000020
2734.090248,0.000056
2734.572451,0.000018
2735.054654,-0.000128
2735.536857,-0.000138
2736.019059,-0.000079
2736.501262,-0.000068
2736.983465,-0.000030
2737.465668,-0.000055
2737.947871,-0.000108
2738.430074,-0.000045
2738.912277,0.000005
2739.394479,-0.000018
2739.876682,0.000013
2740.358885,0.000057
2740.841088,0.000002
2741.323291,-0.000083
2741.805494,-0.000172
2742.287697,-0.000217
2742.769900,-0.000106
2743.252102,-0.000023
2743.734305,-0.000040
2744.216508,0.000003
2744.698711,0.000058
2745.180914,0.000080
2745.663117,0.000075
2746.145320,-0.000004
2746.627522,-0.000072
2747.109725,-0.000060
2747.591928,-0.000031
2748.074131,0.000010
2748.556334,0.000021
2749.038537,-0.000058
2749.520740,-0.000031
2750.002943,0.000133
2750.485145,0.000146
2750.967348,0.000093
2751.449551,0.000176
2751.931754,0.000202
2752.413957,0.000080
2752.896160,-0.000053
2753.378363,-0.000125
2753.860565,-0.000104
2754.342768,-0.000072
2754.824971,-0.000090
2755.307174,-0.000061
2755.789377,0.000020
2756.271580,0.000066
2756.753783,0.000060
2757.235986,0.000053
2757.718188,0.000072
2758.200391,0.000041
2758.682594,-0.000011
2759.164797,0.000009
2759.647000,0.000025
2760.129203,0.000043
2760.611406,0.000040
2761.093608,-0.000058
2761.575811,-0.000050
2762.058014,0.000006
2762.540217,-0.000001
2763.022420,0.000066
2763.504623,0.000011
2763.986826,-0.000145
2764.469028,-0.000062
2764.951231,0.000117
2765.433434,0.000103
2765.915637,-0.000017
2766.397840,-0.000065
2766.880043,-0.000049
2767.362246,-0.000014
2767.844449,-0.000067
2768.326651,-0.000163
2768.808854,-0.000099
2769.291057,-0.000010
2769.773260,-0.000043
2770.255463,-0.000109
2770.737666,-0.000134
2771.219869,-0.000137
2771.702071,-0.000211
2772.184274,-0.000227
2772.666477,-0.000086
2773.148680,0.000009
2773.630883,0.000033
2774.113086,0.000074
2774.595289,0.000006
2775.077492,-0.000102
2775.559694,-0.000065
2776.041897,0.000001
2776.524100,0.000026
2777.006303,0.000029
2777.488506,0.000001
2777.970709,0.000001
2778.452912,-0.000061
2778.935114,-0.000148
2779.417317,-0.000071
2779.899520,-0.000001
2780.381723,-0.000053
2780.863926,-0.000020
2781.346129,0.000054
2781.828332,-0.000001
2782.310535,-0.000063
2782.792737,-0.000054
2783.274940,-0.000030
2783.757143,-0.000028
2784.239346,-0.000093
2784.721549,-0.000155
2785.203752,-0.000100
2785.685955,0.000040
2786.168157,0.000054
2786.650360,-0.000056
2787.132563,-0.000003
2787.614766,0.000105
2788.096969,0.000067
2788.579172,0.000006
2789.061375,-0.000059
2789.543577,-0.000108
2790.025780,-0.000111
2790.507983,-0.000102
2790.990186,-0.000068
2791.472389,-0.000052
2791.954592,-0.000012
2792.436795,0.000060
2792.918998,0.000036
2793.401200,-0.000043
2793.883403,-0.000079
2794.365606,-0.000093
2794.847809,-0.000045
2795.330012,0.000095
2795.812215,0.000133
2796.294418,0.000050
2796.776620,-0.000018
2797.258823,-0.000076
2797.741026,-0.000041
2798.223229,-0.000004
2798.705432,-0.000004
2799.187635,0.000085
2799.669838,0.000093
2800.152041,0.000055
2800.634243,0.000043
2801.116446,-0.000078
2801.598649,-0.000154
2802.080852,-0.000079
2802.563055,0.000020
2803.045258,0.000048
2803.527461,0.000001
2804.009663,-0.000033
2804.491866,-0.000071
2804.974069,-0.000180
2805.456272,-0.000228
2805.938475,-0.000152
2806.420678,-0.000051
2806.902881,0.000073
2807.385084,0.000137
2807.867286,0.000037
2808.349489,-0.000127
2808.831692,-0.000179
2809.313895,-0.000082
2809.796098,-0.000074
2810.278301,-0.000137
2810.760504,-0.000042
2811.242706,0.000018
2811.724909,-0.000026
2812.207112,0.000018
2812.689315,0.000084
2813.171518,0.000053
2813.653721,-0.000017
2814.135924,-0.000045
2814.618127,-0.000013
2815.100329,0.000077
2815.582532,0.000138
2816.064735,0.000099
2816.546938,0.000037
2817.029141,0.000005
2817.511344,-0.000017
2817.993547,-0.000025
2818.475749,0.000002
2818.957952,0.000017
2819.440155,0.000003
2819.922358,-0.000023
2820.404561,-0.000090
2820.886764,-0.000095
2821.368967,-0.000020
2821.851169,-0.000060
2822.333372,-0.000137
2822.815575,-0.000096
2823.297778,-0.000012
2823.779981,0.000060
2824.262184,0.000071
2824.744387,0.000007
2825.226590,-0.000013
2825.708792,0.000007
2826.190995,-0.000030
2826.673198,-0.000035
2827.155401,-0.000015
2827.637604,-0.000097
2828.119807,-0.000135
2828.602010,-0.000051
2829.084212,-0.000003
2829.566415,0.000012
2830.048618,0.000020
2830.530821,-0.000009
2831.013024,-0.000025
2831.495227,-0.000041
2831.977430,-0.000063
2832.459633,-0.000057
2832.941835,-0.000070
2833.424038,-0.000055
2833.906241,0.000019
2834.388444,0.000045
2834.870647,0.000003
2835.352850,-0.000101
2835.835053,-0.000152
2836.317255,-0.000036
2836.799458,0.000054
2837.281661,0.000025
2837.763864,-0.000008
2838.246067,-0.000015
2838.728270,-0.000047
2839.210473,-0.000128
2839.692676,-0.000146
2840.174878,-0.000123
2840.657081,-0.000130
2841.139284,-0.000101
2841.621487,-0.000087
2842.103690,-0.000097
2842.585893,-0.000060
2843.068096,0.000012
2843.550298,0.000073
2844.032501,0.000050
2844.514704,-0.000019
2844.996907,-0.000003
2845.479110,0.000066
2845.961313,0.000117
2846.443516,0.000128
2846.925719,0.000073
2847.407921,0.000058
2847.890124,0.000081
2848.372327,0.000010
2848.854530,-0.000039
2849.336733,-0.000035
2849.818936,-0.000051
2850.301139,0.000038
2850.783341,0.000063
2851.265544,-0.000174
2851.747747,-0.000339
2852.229950,-0.000269
2852.712153,-0.000197
2853.194356,-0.000066
2853.676559,0.000088
2854.158761,-0.000005
2854.640964,-0.000059
2855.123167,0.000092
2855.605370,0.000127
2856.087573,0.000045
2856.569776,-0.000050
2857.051979,-0.000097
2857.534182,-0.000075
2858.016384,-0.000076
2858.498587,0.000012
2858.980790,0.000043
2859.462993,-0.000079
2859.945196,-0.000035
2860.427399,-0.000088
2860.909602,-0.000298
2861.391804,-0.000163
2861.874007,0.000118
2862.356210,0.000284
2862.838413,0.000329
2863.320616,0.000105
2863.802819,-0.000079
2864.285022,0.000039
2864.767225,0.000130
2865.249427,0.000136
2865.731630,0.000171
2866.213833,0.000089
2866.696036,0.000094
2867.178239,0.000249
2867.660442,0.000263
2868.142645,0.000221
2868.624847,0.000129
2869.107050,0.000042
2869.589253,-0.000071
2870.071456,-0.000442
2870.553659,-0.000417
2871.035862,0.000022
2871.518065,-0.000012
2872.000268,-0.000112
2872.482470,0.000083
2872.964673,0.000135
2873.446876,0.000117
2873.929079,0.000047
2874.411282,-0.000031
2874.893485,0.000174
2875.375688,0.000342
2875.857890,0.000220
2876.340093,0.000072
2876.822296,-0.000042
2877.304499,-0.000033
2877.786702,0.000147
2878.268905,0.000206
2878.751108,0.000118
2879.233311,0.000056
2879.715513,-0.000050
2880.197716,-0.000127
2880.679919,0.000036
2881.162122,0.000193
2881.644325,0.000106
2882.126528,0.000068
2882.608731,0.000133
2883.090933,0.000050
2883.573136,-0.000077
2884.055339,-0.000114
2884.537542,-0.000143
2885.019745,-0.000086
2885.501948,0.000060
2885.984151,0.000098
2886.466353,0.000046
2886.948556,-0.000015
2887.430759,-0.000043
2887.912962,0.000029
2888.395165,0.000041
2888.877368,-0.000026
2889.359571,-0.000009
2889.841774,0.000051
2890.323976,0.000066
2890.806179,-0.000004
2891.288382,-0.000045
2891.770585,-0.000025
2892.252788,-0.000054
2892.734991,-0.000028
2893.217194,0.000016
2893.699396,-0.000031
2894.181599,-0.000083
2894.663802,-0.000114
2895.146005,-0.000056
2895.628208,0.000080
2896.110411,0.000138
2896.592614,0.000121
2897.074817,0.000101
2897.557019,0.000106
2898.039222,0.000120
2898.521425,0.000070
2899.003628,0.000037
2899.485831,0.000061
2899.968034,0.000019
2900.450237,0.000005
2900.932439,0.000049
2901.414642,0.000075
2901.896845,0.000124
2902.379048,0.000136
2902.861251,0.000110
2903.343454,0.000094
2903.825657,0.000094
2904.307860,0.000121
2904.790062,0.000124
2905.272265,0.000080
2905.754468,-0.000082
2906.236671,-0.000221
2906.718874,-0.000158
2907.201077,-0.000098
2907.683280,-0.000084
2908.165482,-0.000051
2908.647685,-0.000012
2909.129888,0.000074
2909.612091,0.000070
2910.094294,-0.000037
2910.576497,-0.000073
2911.058700,-0.000006
2911.540902,0.000121
2912.023105,0.000171
2912.505308,0.000096
2912.987511,0.000051
2913.469714,0.000110
2913.951917,0.000128
2914.434120,-0.000010
2914.916323,-0.000125
2915.398525,-0.000062
2915.880728,0.000058
2916.362931,0.000121
2916.845134,0.000124
2917.327337,0.000080
2917.809540,0.000043
2918.291743,0.000061
2918.773945,0.000071
2919.256148,0.000049
2919.738351,0.000107
2920.220554,0.000195
2920.702757,0.000158
2921.184960,0.000075
2921.667163,0.000038
2922.149366,0.000021
2922.631568,0.000025
2923.113771,-0.000048
2923.595974,-0.000149
2924.078177,-0.000026
2924.560380,0.000103
2925.042583,-0.000005
2925.524786,-0.000106
2926.006988,-0.000096
2926.489191,-0.000055
2926.971394,-0.000046
2927.453597,-0.000080
2927.935800,-0.000073
2928.418003,-0.000072
2928.900206,-0.000126
2929.382409,-0.000119
2929.864611,-0.000027
2930.346814,0.000011
2930.829017,-0.000010
2931.311220,0.000036
2931.793423,0.000076
2932.275626,0.000043
2932.757829,0.000057
2933.240031,0.000121
2933.722234,0.000125
2934.204437,0.000079
2934.686640,0.000087
2935.168843,0.000125
2935.651046,0.000057
2936.133249,-0.000080
2936.615452,-0.000144
2937.097654,-0.000129
2937.579857,-0.000089
2938.062060,-0.000077
2938.544263,-0.000050
2939.026466,0.000064
2939.508669,0.000088
2939.990872,-0.000009
2940.473074,0.000032
2940.955277,0.000151
2941.437480,0.000198
2941.919683,0.000185
2942.401886,0.000039
2942.884089,-0.000067
2943.366292,0.000011
2943.848494,0.000036
2944.330697,-0.000020
2944.812900,-0.000049
2945.295103,-0.000072
2945.777306,-0.000053
2946.259509,-0.000030
2946.741712,0.000010
2947.223915,0.000129
2947.706117,0.000175
2948.188320,0.000083
2948.670523,-0.000044
2949.152726,-0.000150
2949.634929,-0.000124
2950.117132,0.000021
2950.599335,0.000062
2951.081537,-0.000024
2951.563740,-0.000027
2952.045943,0.000072
2952.528146,0.000079
2953.010349,0.000045
2953.492552,0.000087
2953.974755,0.000071
2954.456958,-0.000039
2954.939160,-0.000061
2955.421363,0.000044
2955.903566,0.000070
2956.385769,-0.000014
2956.867972,-0.000061
2957.350175,-0.000083
2957.832378,-0.000057
2958.314580,-0.000030
2958.796783,-0.000056
2959.278986,0.000039
2959.761189,0.000122
2960.243392,0.000044
2960.725595,-0.000010
2961.207798,-0.000061
2961.690001,-0.000086
2962.172203,-0.000028
2962.654406,-0.000025
2963.136609,-0.000040
2963.618812,-0.000044
2964.101015,-0.000045
2964.583218,-0.000004
2965.065421,-0.000027
2965.547623,-0.000037
2966.029826,0.000077
2966.512029,0.000099
2966.994232,0.000020
2967.476435,0.000058
2967.958638,0.000078
2968.440841,-0.000025
2968.923044,-0.000012
2969.405246,0.000092
2969.887449,0.000073
2970.369652,-0.000015
2970.851855,-0.000024
2971.334058,-0.000014
2971.816261,-0.000058
2972.298464,0.000003
2972.780666,0.000120
2973.262869,0.000094
2973.745072,0.000028
2974.227275,-0.000004
2974.709478,-0.000029
2975.191681,0.000019
2975.673884,0.000084
2976.156086,0.000054
2976.638289,-0.000016
2977.120492,-0.000070
2977.602695,-0.000099
2978.084898,-0.000112
2978.567101,-0.000106
2979.049304,-0.000031
2979.531507,-0.000050
2980.013709,-0.000114
2980.495912,0.000017
2980.978115,0.000127
2981.460318,0.000097
2981.942521,0.000000
2982.424724,-0.000090
2982.906927,-0.000055
2983.389129,-0.000062
2983.871332,-0.000109
2984.353535,-0.000018
2984.835738,0.000110
2985.317941,0.000139
2985.800144,0.000033
2986.282347,-0.000076
2986.764550,-0.000018
2987.246752,0.000071
2987.728955,0.000034
2988.211158,0.000048
2988.693361,0.000130
2989.175564,0.000077
2989.657767,0.000027
2990.139970,0.000045
2990.622172,0.000034
2991.104375,0.000087
2991.586578,0.000144
2992.068781,0.000107
2992.550984,0.000023
2993.033187,0.000009
2993.515390,0.000071
2993.997593,-0.000008
2994.479795,-0.000149
2994.961998,-0.000083
2995.444201,0.000037
2995.926404,0.000025
2996.408607,-0.000027
2996.890810,-0.000119
2997.373013,-0.000107
2997.855215,0.000064
2998.337418,0.000051
2998.819621,-0.000028
2999.301824,0.000034
2999.784027,-0.000020
3000.266230,-0.000108
3000.748433,-0.000054
3001.230635,0.000018
3001.712838,0.000078
3002.195041,0.000047
3002.677244,-0.000047
3003.159447,0.000016
3003.641650,0.000088
3004.123853,0.000081
3004.606056,0.000109
3005.088258,0.000095
3005.570461,0.000110
3006.052664,0.000098
3006.534867,0.000047
3007.017070,0.000150
3007.499273,0.000177
3007.981476,0.000087
3008.463678,0.000047
3008.945881,0.000055
3009.428084,0.000113
3009.910287,0.000043
3010.392490,-0.000036
3010.874693,-0.000029
3011.356896,-0.000085
3011.839099,0.000003
3012.321301,0.000179
3012.803504,0.000193
3013.285707,0.000140
3013.767910,0.000115
3014.250113,0.000099
3014.732316,0.000060
3015.214519,0.000046
3015.696721,0.000079
3016.178924,0.000143
3016.661127,0.000191
3017.143330,0.000147
3017.625533,0.000179
3018.107736,0.000206
3018.589939,0.000090
3019.072142,0.000128
3019.554344,0.000144
3020.036547,-0.000034
3020.518750,-0.000093
3021.000953,-0.000077
3021.483156,-0.000031
3021.965359,0.000049
3022.447562,0.000012
3022.929764,-0.000048
3023.411967,0.000001
3023.894170,0.000105
3024.376373,0.000063
3024.858576,-0.000041
3025.340779,0.000027
3025.822982,0.000088
3026.305185,0.000140
3026.787387,0.000273
3027.269590,0.000218
3027.751793,0.000048
3028.233996,0.000059
3028.716199,0.000183
3029.198402,0.000242
3029.680605,0.000206
3030.162807,0.000180
3030.645010,0.000228
3031.127213,0.000164
3031.609416,-0.000005
3032.091619,0.000006
3032.573822,0.000061
3033.056025,-0.000007
3033.538227,-0.000022
3034.020430,0.000085
3034.502633,0.000252
3034.984836,0.000276
3035.467039,0.000153
3035.949242,0.000157
3036.431445,0.000193
3036.913648,0.000118
3037.395850,-0.000001
3037.878053,-0.000070
3038.360256,-0.000006
3038.842459,-0.000000
3039.324662,-0.000093
3039.806865,-0.000056
3040.289068,0.000007
3040.771270,0.000036
3041.253473,0.000185
3041.735676,0.000257
3042.217879,0.000093
3042.700082,-0.000027
3043.182285,-0.000051
3043.664488,-0.000071
3044.146691,0.000003
3044.628893,0.000035
3045.111096,-0.000077
3045.593299,-0.000177
3046.075502,-0.000144
3046.557705,0.000013
3047.039908,0.000067
3047.522111,-0.000039
3048.004313,-0.000019
3048.486516,0.000071
3048.968719,0.000060
3049.450922,0.000111
3049.933125,0.000104
3050.415328,-0.000008
3050.897531,0.000034
3051.379734,0.000062
3051.861936,0.000080
3052.344139,0.000210
3052.826342,0.000153
3053.308545,0.000001
3053.790748,-0.000038
3054.272951,-0.000002
3054.755154,0.000127
3055.237356,0.000137
3055.719559,0.000065
3056.201762,0.000205
3056.683965,0.000286
3057.166168,0.000132
3057.648371,0.000066
3058.130574,0.000137
3058.612777,0.000172
3059.094979,0.000155
3059.577182,0.000112
3060.059385,0.000011
3060.541588,-0.000064
3061.023791,-0.000002
3061.505994,0.000042
3061.988197,0.000060
3062.470399,0.000186
3062.952602,0.000222
3063.434805,0.000129
3063.917008,0.000104
3064.399211,0.000126
3064.881414,0.000111
3065.363617,0.000096
3065.845819,0.000174
3066.328022,0.000295
3066.810225,0.000302
3067.292428,0.000262
3067.774631,0.000249
3068.256834,0.000165
3068.739037,0.000124
3069.221240,0.000176
3069.703442,0.000092
3070.185645,-0.000102
3070.667848,-0.000131
3071.150051,0.000005
3071.632254,0.000048
3072.114457,0.000020
3072.596660,0.000046
3073.078862,0.000046
3073.561065,0.000027
3074.043268,-0.000010
3074.525471,-0.000040
3075.007674,-0.000014
3075.489877,-0.000014
3075.972080,0.000028
3076.454283,0.000086
3076.936485,0.000063
3077.418688,0.000019
3077.900891,-0.000044
3078.383094,0.000045
3078.865297,0.000273
3079.347500,0.000303
3079.829703,0.000232
3080.311905,0.000196
3080.794108,0.000056
3081.276311,-0.000042
3081.758514,0.000017
3082.240717,-0.000004
3082.722920,-0.000105
3083.205123,-0.000059
3083.687326,0.000047
3084.169528,0.000064
3084.651731,0.000033
3085.133934,0.000024
3085.616137,0.000129
3086.098340,0.000168
3086.580543,-0.000017
3087.062746,-0.000100
3087.544948,0.000057
3088.027151,0.000191
3088.509354,0.000181
3088.991557,0.000089
3089.473760,-0.000020
3089.955963,-0.000015
3090.438166,0.000117
3090.920368,0.000116
3091.402571,-0.000000
3091.884774,0.000051
3092.366977,0.000125
3092.849180,0.000084
3093.331383,0.000171
3093.813586,0.000265
3094.295789,0.000193
3094.777991,0.000199
3095.260194,0.000231
3095.742397,0.000178
3096.224600,0.000184
3096.706803,0.000176
3097.189006,0.000124
3097.671209,0.000143
3098.153411,0.000215
3098.635614,0.000223
3099.117817,0.000152
3099.600020,0.000162
3100.082223,0.000269
3100.564426,0.000329
3101.046629,0.000348
3101.528832,0.000297
3102.011034,0.000112
3102.493237,0.000052
3102.975440,0.000237
3103.457643,0.000282
3103.939846,0.000126
3104.422049,0.000100
3104.904252,0.000084
3105.386454,-0.000018
3105.868657,0.000037
3106.350860,0.000141
3106.833063,0.000194
3107.315266,0.000236
3107.797469,0.000213
3108.279672,0.000244
3108.761875,0.000265
3109.244077,0.000232
3109.726280,0.000219
3110.208483,0.000155
3110.690686,0.000162
3111.172889,0.000183
3111.655092,0.000128
3112.137295,0.000095
3112.619497,0.000035
3113.101700,0.000067
3113.583903,0.000121
3114.066106,0.000054
3114.548309,0.000055
3115.030512,0.000099
3115.512715,0.000147
3115.994918,0.000198
3116.477120,0.000110
3116.959323,0.000035
3117.441526,0.000077
3117.923729,0.000116
3118.405932,0.000164
3118.888135,0.000192
3119.370338,0.000181
3119.852540,0.000199
3120.334743,0.000249
3120.816946,0.000321
3121.299149,0.000322
3121.781352,0.000206
3122.263555,0.000121
3122.745758,0.000174
3123.227960,0.000238
3123.710163,0.000202
3124.192366,0.000182
3124.674569,0.000134
3125.156772,0.000038
3125.638975,0.000090
3126.121178,0.000220
3126.603381,0.000324
3127.085583,0.000333
3127.567786,0.000186
3128.049989,-0.000002
3128.532192,-0.000077
3129.014395,0.000027
3129.496598,0.000136
3129.978801,0.000142
3130.461003,0.000121
3130.943206,0.000139
3131.425409,0.000235
3131.907612,0.000243
3132.389815,0.000147
3132.872018,0.000137
3133.354221,0.000170
3133.836424,0.000085
3134.318626,-0.000079
3134.800829,-0.000107
3135.283032,-0.000096
3135.765235,-0.000170
3136.247438,-0.000120
3136.729641,0.000069
3137.211844,0.000245
3137.694046,0.000303
3138.176249,0.000184
3138.658452,0.000081
3139.140655,0.000159
3139.622858,0.000277
3140.105061,0.000275
3140.587264,0.000159
3141.069467,0.000064
3141.551669,0.000060
3142.033872,0.000094
3142.516075,0.000148
3142.998278,0.000095
3143.480481,-0.000009
3143.962684,0.000106
3144.444887,0.000292
3144.927089,0.000313
3145.409292,0.000237
3145.891495,0.000147
3146.373698,-0.000021
3146.855901,-0.000239
3147.338104,-0.000273
3147.820307,-0.000165
3148.302510,-0.000132
3148.784712,-0.000095
3149.266915,0.000013
3149.749118,0.000114
3150.231321,0.000145
3150.713524,0.000051
3151.195727,-0.000012
3151.677930,0.000068
3152.160132,0.000168
3152.642335,0.000231
3153.124538,0.000163
3153.606741,0.000062
3154.088944,0.000017
3154.571147,-0.000115
3155.053350,-0.000126
3155.535552,0.000016
3156.017755,0.000021
3156.499958,-0.000024
3156.982161,0.000056
3157.464364,0.000135
3157.946567,0.000029
3158.428770,-0.000068
3158.910973,0.000019
3159.393175,0.000121
3159.875378,0.000123
3160.357581,0.000026
3160.839784,-0.000099
3161.321987,-0.000169
3161.804190,-0.000058
3162.286393,0.000097
3162.768595,-0.000028
3163.250798,-0.000188
3163.733001,-0.000102
3164.215204,0.000035
3164.697407,0.000107
3165.179610,0.000155
3165.661813,0.000106
3166.144016,-0.000029
3166.626218,-0.000047
3167.108421,-0.000003
3167.590624,0.000047
3168.072827,0.000177
3168.555030,0.000143
3169.037233,0.000037
3169.519436,0.000124
3170.001638,0.000133
3170.483841,-0.000022
3170.966044,-0.000072
3171.448247,0.000042
3171.930450,0.000146
3172.412653,0.000159
3172.894856,0.000083
3173.377059,-0.000030
3173.859261,0.000049
3174.341464,0.000150
3174.823667,-0.000040
3175.305870,-0.000159
3175.788073,-0.000031
3176.270276,0.000087
3176.752479,0.000101
3177.234681,0.000065
3177.716884,0.000162
3178.199087,0.000270
3178.681290,0.000183
3179.163493,0.000096
3179.645696,0.000033
3180.127899,-0.000093
3180.610102,-0.000197
3181.092304,-0.000176
3181.574507,-0.000055
3182.056710,-0.000027
3182.538913,0.000012
3183.021116,0.000146
3183.503319,0.000217
3183.985522,0.000293
3184.467724,0.000242
3184.949927,0.000039
3185.432130,0.000043
3185.914333,0.000155
3186.396536,0.000128
3186.878739,0.000054
3187.360942,0.000072
3187.843144,0.000132
3188.325347,0.000066
3188.807550,-0.000054
3189.289753,-0.000056
3189.771956,-0.000006
3190.254159,0.000031
3190.736362,0.000126
3191.218565,0.000184
3191.700767,0.000122
3192.182970,0.000052
3192.665173,-0.000030
3193.147376,-0.000104
3193.629579,-0.000136
3194.111782,-0.000174
3194.593985,-0.000142
3195.076187,-0.000048
3195.558390,-0.000008
3196.040593,0.000005
3196.522796,0.000044
3197.004999,0.000041
3197.487202,0.000060
3197.969405,0.000199
3198.451608,0.000249
3198.933810,0.000149
3199.416013,0.000132
3199.898216,0.000113
3200.380419,-0.000047
3200.862622,-0.000067
3201.344825,0.000084
3201.827028,0.000133
3202.309230,0.000122
3202.791433,0.000122
3203.273636,0.000117
3203.755839,0.000153
3204.238042,0.000172
3204.720245,0.000143
3205.202448,0.000064
3205.684651,-0.000061
3206.166853,-0.000056
3206.649056,0.000070
3207.131259,0.000070
3207.613462,0.000004
3208.095665,-0.000065
3208.577868,-0.000134
3209.060071,-0.000065
3209.542273,-0.000045
3210.024476,-0.000048
3210.506679,0.000073
3210.988882,0.000009
3211.471085,-0.000143
3211.953288,-0.000142
3212.435491,-0.000121
3212.917693,-0.000018
3213.399896,0.000147
3213.882099,0.000156
3214.364302,0.000103
3214.846505,0.000050
3215.328708,-0.000107
3215.810911,-0.000139
3216.293114,0.000048
3216.775316,0.000119
3217.257519,0.000033
3217.739722,-0.000010
3218.221925,-0.000008
3218.704128,0.000027
3219.186331,0.000095
3219.668534,0.000107
3220.150736,0.000077
3220.632939,0.000062
3221.115142,-0.000007
3221.597345,-0.000074
3222.079548,-0.000043
3222.561751,-0.000055
3223.043954,-0.000062
3223.526157,0.000106
3224.008359,0.000142
3224.490562,-0.000050
3224.972765,-0.000133
3225.454968,-0.000094
3225.937171,-0.000039
3226.419374,-0.000055
3226.901577,-0.000100
3227.383779,-0.000094
3227.865982,-0.000147
3228.348185,-0.000058
3228.830388,0.000114
3229.312591,0.000030
3229.794794,-0.000128
3230.276997,-0.000173
3230.759200,-0.000115
3231.241402,-0.000037
3231.723605,-0.000021
3232.205808,-0.000028
3232.688011,0.000017
3233.170214,0.000208
3233.652417,0.000243
3234.134620,-0.000016
3234.616822,-0.000180
3235.099025,-0.000170
3235.581228,-0.000123
3236.063431,-0.000150
3236.545634,-0.000199
3237.027837,-0.000088
3237.510040,-0.000009
3237.992243,-0.000054
3238.474445,-0.000091
3238.956648,-0.000143
3239.438851,-0.000082
3239.921054,0.000098
3240.403257,0.000092
3240.885460,-0.000051
3241.367663,-0.000103
3241.849865,-0.000167
3242.332068,-0.000244
3242.814271,-0.000195
3243.296474,-0.000153
3243.778677,-0.000173
3244.260880,-0.000137
3244.743083,-0.000120
3245.225285,-0.000269
3245.707488,-0.000470
3246.189691,-0.000453
3246.671894,-0.000230
3247.154097,-0.000082
3247.636300,-0.000127
3248.118503,-0.000221
3248.600706,-0.000246
3249.082908,-0.000269
3249.565111,-0.000353
3250.047314,-0.000301
3250.529517,-0.000104
3251.011720,-0.000125
3251.493923,-0.000208
3251.976126,-0.000022
3252.458328,0.000111
3252.940531,0.000019
3253.422734,-0.000041
3253.904937,0.000031
3254.387140,0.000089
3254.869343,0.000020
3255.351546,-0.000059
3255.833749,-0.000121
3256.315951,-0.000244
3256.798154,-0.000285
3257.280357,-0.000194
3257.762560,-0.000231
3258.244763,-0.000369
3258.726966,-0.000293
3259.209169,-0.000216
3259.691371,-0.000303
3260.173574,-0.000266
3260.655777,-0.000250
3261.137980,-0.000324
3261.620183,-0.000258
3262.102386,-0.000206
3262.584589,-0.000205
3263.066792,-0.000201
3263.548994,-0.000276
3264.031197,-0.000295
3264.513400,-0.000265
3264.995603,-0.000244
3265.477806,-0.000103
3265.960009,0.000031
3266.442212,-0.000030
3266.924414,-0.000140
3267.406617,-0.000158
3267.888820,-0.000156
3268.371023,-0.000167
3268.853226,-0.000181
3269.335429,-0.000213
3269.817632,-0.000232
3270.299835,-0.000182
3270.782037,0.000001
3271.264240,0.000118
3271.746443,-0.000050
3272.228646,-0.000209
3272.710849,-0.000189
3273.193052,-0.000166
3273.675255,-0.000070
3274.157457,0.000095
3274.639660,0.000090
3275.121863,-0.000055
3275.604066,-0.000135
3276.086269,-0.000061
3276.568472,0.000041
3277.050675,-0.000015
3277.532877,-0.000072
3278.015080,-0.000025
3278.497283,-0.000013
3278.979486,0.000041
3279.461689,0.000111
3279.943892,0.000122
3280.426095,0.000115
3280.908298,-0.000027
3281.390500,-0.000159
3281.872703,-0.000146
3282.354906,-0.000151
3282.837109,-0.000136
3283.319312,-0.000111
3283.801515,-0.000148
3284.283718,-0.000130
3284.765920,-0.000095
3285.248123,-0.000137
3285.730326,-0.000154
3286.212529,-0.000111
3286.694732,-0.000088
3287.176935,-0.000088
3287.659138,-0.000017
3288.141341,0.000168
3288.623543,0.000191
3289.105746,-0.000126
3289.587949,-0.000401
3290.070152,-0.000363
3290.552355,-0.000196
3291.034558,-0.000153
3291.516761,-0.000168
3291.998963,-0.000024
3292.481166,0.000014
3292.963369,-0.000217
3293.445572,-0.000266
3293.927775,-0.000059
3294.409978,-0.000006
3294.892181,-0.000075
3295.374384,-0.000045
3295.856586,-0.000035
3296.338789,-0.000088
3296.820992,-0.000151
3297.303195,-0.000265
3297.785398,-0.000410
3298.267601,-0.000575
3298.749804,-0.000544
3299.232006,-0.000319
3299.714209,-0.000246
3300.196412,-0.000197
3300.678615,-0.000032
3301.160818,0.000096
3301.643021,0.000104
3302.125224,-0.000001
3302.607426,-0.000084
3303.089629,-0.000128
3303.571832,-0.000068
3304.054035,0.000063
3304.536238,0.000008
3305.018441,-0.000122
3305.500644,-0.000144
3305.982847,-0.000060
3306.465049,0.000022
3306.947252,-0.000054
3307.429455,-0.000084
3307.911658,0.000006
3308.393861,-0.000014
3308.876064,-0.000003
3309.358267,0.000069
3309.840469,-0.000040
3310.322672,-0.000178
3310.804875,-0.000236
3311.287078,-0.000257
3311.769281,-0.000124
3312.251484,0.000034
3312.733687,0.000020
3313.215890,-0.000022
3313.698092,0.000096
3314.180295,0.000167
3314.662498,0.000063
3315.144701,0.000005
3315.626904,-0.000067
3316.109107,-0.000118
3316.591310,-0.000042
3317.073512,-0.000051
3317.555715,-0.000076
3318.037918,-0.000095
3318.520121,-0.000209
3319.002324,-0.000186
3319.484527,-0.000029
3319.966730,0.000036
3320.448933,0.000061
3320.931135,0.000125
3321.413338,0.000167
3321.895541,0.000139
3322.377744,-0.000001
3322.859947,-0.000096
3323.342150,-0.000109
3323.824353,-0.000103
3324.306555,0.000119
3324.788758,0.000244
3325.270961,0.000047
3325.753164,-0.000080
3326.235367,-0.000217
3326.717570,-0.000229
3327.199773,0.000032
3327.681976,0.000048
3328.164178,-0.000000
3328.646381,0.000148
3329.128584,0.000130
3329.610787,-0.000032
3330.092990,-0.000147
3330.575193,-0.000102
3331.057396,0.000022
3331.539598,-0.000028
3332.021801,-0.000100
3332.504004,-0.000002
3332.986207,0.000084
3333.468410,0.000090
3333.950613,0.000134
3334.432816,0.000144
3334.915018,0.000045
3335.397221,-0.000104
3335.879424,-0.000128
3336.361627,0.000074
3336.843830,0.000184
3337.326033,0.000107
3337.808236,0.000052
3338.290439,0.000068
3338.772641,0.000186
3339.254844,0.000237
3339.737047,0.000217
3340.219250,0.000257
3340.701453,0.000171
3341.183656,-0.000023
3341.665859,-0.000093
3342.148061,-0.000067
3342.630264,-0.000081
3343.112467,-0.000137
3343.594670,-0.000278
3344.076873,-0.000346
3344.559076,-0.000138
3345.041279,-0.000014
3345.523482,-0.000056
3346.005684,-0.000012
3346.487887,0.000138
3346.970090,0.000257
3347.452293,0.000003
3347.934496,-0.000264
3348.416699,-0.000109
3348.898902,-0.000020
3349.381104,-0.000009
3349.863307,0.000143
3350.345510,0.000150
3350.827713,0.000087
3351.309916,0.000067
3351.792119,-0.000041
3352.274322,-0.000120
3352.756525,-0.000167
3353.238727,-0.000256
3353.720930,-0.000201
3354.203133,-0.000002
3354.685336,0.000133
3355.167539,0.000146
3355.649742,0.000040
3356.131945,-0.000034
3356.614147,0.000077
3357.096350,0.000124
3357.578553,0.000003
3358.060756,-0.000001
3358.542959,0.000107
3359.025162,0.000112
3359.507365,-0.000031
3359.989568,-0.000228
3360.471770,-0.000242
3360.953973,0.000028
3361.436176,0.000230
3361.918379,0.000133
3362.400582,0.000049
3362.882785,0.000005
3363.364988,-0.000133
3363.847190,-0.000052
3364.329393,0.000111
3364.811596,0.000025
3365.293799,0.000063
3365.776002,0.000288
3366.258205,0.000371
3366.740408,0.000369
3367.222610,0.000291
3367.704813,0.000215
3368.187016,0.000213
3368.669219,0.000077
3369.151422,-0.000017
3369.633625,0.000075
3370.115828,0.000177
3370.598031,0.000197
3371.080233,0.000164
3371.562436,0.000196
3372.044639,0.000106
3372.526842,-0.000024
3373.009045,0.000097
3373.491248,0.000100
3373.973451,-0.000046
3374.455653,-0.000088
3374.937856,-0.000188
3375.420059,-0.000205
3375.902262,-0.000022
3376.384465,0.000093
3376.866668,0.000118
3377.348871,0.000107
3377.831074,-0.000049
3378.313276,-0.000204
3378.795479,-0.000157
3379.277682,-0.000050
3379.759885,-0.000037
3380.242088,-0.000005
3380.724291,0.000169
3381.206494,0.000315
3381.688696,0.000214
3382.170899,0.000039
3382.653102,0.000017
3383.135305,0.000054
3383.617508,0.000032
3384.099711,-0.000049
3384.581914,-0.000104
3385.064117,-0.000084
3385.546319,-0.000124
3386.028522,-0.000149
3386.510725,0.000064
3386.992928,0.000258
3387.475131,0.000165
3387.957334,0.000098
3388.439537,0.000212
3388.921739,0.000244
3389.403942,0.000191
3389.886145,0.000152
3390.368348,0.000080
3390.850551,0.000043
3391.332754,0.000100
3391.814957,0.000130
3392.297160,0.000082
3392.779362,0.000052
3393.261565,0.000103
3393.743768,0.000250
3394.225971,0.000345
3394.708174,0.000283
3395.190377,0.000213
3395.672580,0.000146
3396.154782,0.000163
3396.636985,0.000312
3397.119188,0.000396
3397.601391,0.000430
3398.083594,0.000301
3398.565797,-0.000031
3399.048000,-0.000148
3399.530202,0.000039
3400.012405,0.000142
3400.494608,0.000026
3400.976811,0.000021
3401.459014,0.000144
3401.941217,0.000071
3402.423420,-0.000031
3402.905623,0.000093
3403.387825,0.000192
3403.870028,0.000168
3404.352231,0.000208
3404.834434,0.000178
3405.316637,0.000031
3405.798840,-0.000085
3406.281043,-0.000224
3406.763245,-0.000205
3407.245448,0.000019
3407.727651,0.000101
3408.209854,0.000165
3408.692057,0.000291
3409.174260,0.000259
3409.656463,0.000305
3410.138666,0.000400
3410.620868,0.000262
3411.103071,0.000125
3411.585274,0.000135
3412.067477,0.000154
3412.549680,0.000061
3413.031883,-0.000089
3413.514086,-0.000194
3413.996288,-0.000279
3414.478491,-0.000174
3414.960694,-0.000011
3415.442897,-0.000058
3415.925100,0.000036
3416.407303,0.000259
3416.889506,0.000145
3417.371709,-0.000088
3417.853911,0.000051
3418.336114,0.000374
3418.818317,0.000390
3419.300520,0.000215
3419.782723,0.000271
3420.264926,0.000527
3420.747129,0.000689
3421.229331,0.000606
3421.711534,0.000378
3422.193737,0.000268
3422.675940,0.000414
3423.158143,0.000547
3423.640346,0.000290
3424.122549,0.000087
3424.604751,0.000189
3425.086954,-0.000090
3425.569157,-0.000347
3426.051360,-0.000020
3426.533563,0.000061
3427.015766,-0.000183
3427.497969,-0.000042
3427.980172,0.000228
3428.462374,0.000159
3428.944577,0.000074
3429.426780,0.000077
3429.908983,-0.000112
3430.391186,-0.000184
3430.873389,-0.000045
3431.355592,0.000030
3431.837794,0.000056
3432.319997,-0.000099
3432.802200,-0.000240
3433.284403,-0.000012
3433.766606,0.000232
3434.248809,0.000284
3434.731012,0.000142
3435.213215,-0.000162
3435.695417,-0.000141
3436.177620,0.000199
3436.659823,0.000360
3437.142026,0.000376
3437.624229,0.000463
3438.106432,0.000433
3438.588635,0.000166
3439.070837,0.000065
3439.553040,0.000241
3440.035243,0.000323
3440.517446,0.000137
3440.999649,-0.000134
3441.481852,-0.000174
3441.964055,-0.000108
3442.446258,0.000025
3442.928460,0.000375
3443.410663,0.000552
3443.892866,0.000440
3444.375069,0.000379
3444.857272,0.000341
3445.339475,0.000131
3445.821678,0.000023
3446.303880,0.000257
3446.786083,0.000463
3447.268286,0.000642
3447.750489,0.000797
3448.232692,0.000470
3448.714895,0.000130
3449.197098,0.000243
3449.679301,0.000206
3450.161503,-0.000170
3450.643706,-0.000302
3451.125909,-0.000025
3451.608112,0.000146
3452.090315,0.000067
3452.572518,0.000024
3453.054721,0.000042
3453.536923,0.000173
3454.019126,0.000268
3454.501329,0.000231
3454.983532,0.000270
3455.465735,0.000213
3455.947938,0.000156
3456.430141,0.000251
3456.912343,0.000255
3457.394546,0.000202
3457.876749,0.000156
3458.358952,0.000242
3458.841155,0.000378
3459.323358,0.000315
3459.805561,0.000271
3460.287764,0.000264
3460.769966,0.000222
3461.252169,0.000127
3461.734372,-0.000025
3462.216575,0.000110
3462.698778,0.000311
3463.180981,0.000260
3463.663184,0.000276
3464.145386,0.000286
3464.627589,0.000246
3465.109792,0.000289
3465.591995,0.000197
3466.074198,0.000135
3466.556401,0.000179
3467.038604,0.000061
3467.520807,0.000030
3468.003009,0.000129
3468.485212,0.000055
3468.967415,0.000013
3469.449618,0.000183
3469.931821,0.000308
3470.414024,0.000197
3470.896227,0.000014
3471.378429,-0.000068
3471.860632,-0.000102
3472.342835,-0.000032
3472.825038,-0.000004
3473.307241,-0.000141
3473.789444,0.000039
3474.271647,0.000350
3474.753850,0.000239
3475.236052,0.000124
3475.718255,0.000361
3476.200458,0.000536
3476.682661,0.000237
3477.164864,-0.000133
3477.647067,-0.000077
3478.129270,0.000156
3478.611472,0.000316
3479.093675,0.000245
3479.575878,0.000038
3480.058081,0.000050
3480.540284,0.000161
3481.022487,0.000172
3481.504690,0.000145
3481.986893,0.000182
3482.469095,0.000298
3482.951298,0.000380
3483.433501,0.000204
3483.915704,0.000002
3484.397907,0.000236
3484.880110,0.000416
3485.362313,0.000251
3485.844515,0.000182
3486.326718,0.000184
3486.808921,0.000222
3487.291124,0.000297
3487.773327,0.000305
3488.255530,0.000407
3488.737733,0.000452
3489.219935,0.000216
3489.702138,0.000070
3490.184341,0.000071
3490.666544,-0.000141
3491.148747,-0.000153
3491.630950,0.000146
3492.113153,0.000194
3492.595356,0.000229
3493.077558,0.000394
3493.559761,0.000341
3494.041964,0.000174
3494.524167,0.000066
3495.006370,0.000055
3495.488573,0.000127
3495.970776,0.000216
3496.452978,0.000265
3496.935181,0.000118
3497.417384,-0.000132
3497.899587,-0.000053
3498.381790,0.000206
3498.863993,0.000125
3499.346196,0.000107
3499.828399,0.000427
3500.310601,0.000393
3500.792804,0.000199
3501.275007,0.000421
3501.757210,0.000583
3502.239413,0.000484
3502.721616,0.000482
3503.203819,0.000715
3503.686021,0.000854
3504.168224,0.000519
3504.650427,0.000281
3505.132630,0.000410
3505.614833,0.000260
3506.097036,-0.000045
3506.579239,-0.000086
3507.061442,0.000045
3507.543644,0.000192
3508.025847,0.000201
3508.508050,0.000168
3508.990253,0.000318
3509.472456,0.000579
3509.954659,0.000554
3510.436862,0.000172
3510.919064,-0.000000
3511.401267,0.000123
3511.883470,0.000182
3512.365673,0.000198
3512.847876,0.000232
3513.330079,0.000235
3513.812282,0.000203
3514.294484,0.000217
3514.776687,0.000255
3515.258890,0.000072
3515.741093,-0.000214
3516.223296,-0.000268
3516.705499,-0.000175
3517.187702,-0.000034
3517.669905,0.000051
3518.152107,-0.000043
3518.634310,-0.000011
3519.116513,0.000187
3519.598716,0.000332
3520.080919,0.000406
3520.563122,0.000199
3521.045325,-0.000007
3521.527527,0.000232
3522.009730,0.000522
3522.491933,0.000610
3522.974136,0.000779
3523.456339,0.001012
3523.938542,0.000886
3524.420745,0.000547
3524.902948,0.000420
3525.385150,0.000424
3525.867353,0.000678
3526.349556,0.000849
3526.831759,0.000576
3527.313962,0.000553
3527.796165,0.000682
3528.278368,0.000435
3528.760570,0.000213
3529.242773,0.000357
3529.724976,0.000538
3530.207179,0.000378
3530.689382,0.000256
3531.171585,0.000230
3531.653788,0.000021
3532.135991,0.000033
3532.618193,0.000110
3533.100396,-0.000161
3533.582599,-0.000351
3534.064802,-0.000141
3534.547005,-0.000009
3535.029208,-0.000280
3535.511411,-0.000375
3535.993613,-0.000105
3536.475816,0.000078
3536.958019,0.000088
3537.440222,-0.000038
3537.922425,-0.000169
3538.404628,-0.000166
3538.886831,-0.000188
3539.369034,-0.000242
3539.851236,-0.000224
3540.333439,-0.000116
3540.815642,0.000130
3541.297845,0.000214
3541.780048,0.000114
3542.262251,0.000301
3542.744454,0.000530
3543.226656,0.000598
3543.708859,0.000666
3544.191062,0.000681
3544.673265,0.000896
3545.155468,0.001185
3545.637671,0.001170
3546.119874,0.001021
3546.602076,0.000977
3547.084279,0.001186
3547.566482,0.001300
3548.048685,0.000765
3548.530888,0.000248
3549.013091,0.000291
3549.495294,0.000211
3549.977497,0.000116
3550.459699,0.000249
3550.941902,0.000132
3551.424105,0.000068
3551.906308,0.000256
3552.388511,0.000519
3552.870714,0.000567
3553.352917,0.000228
3553.835119,0.000108
3554.317322,0.000135
3554.799525,0.000057
3555.281728,0.000119
3555.763931,0.000084
3556.246134,-0.000045
3556.728337,-0.000020
3557.210540,0.000060
3557.692742,0.000052
3558.174945,0.000050
3558.657148,0.000106
3559.139351,0.000082
3559.621554,0.000149
3560.103757,0.000407
3560.585960,0.000609
3561.068162,0.000662
3561.550365,0.000606
3562.032568,0.000604
3562.514771,0.000755
3562.996974,0.000886
3563.479177,0.001152
3563.961380,0.001586
3564.443583,0.001755
3564.925785,0.001751
3565.407988,0.001892
3565.890191,0.002368
3566.372394,0.003210
3566.854597,0.003814
3567.336800,0.003485
3567.819003,0.002886
3568.301205,0.003245
3568.783408,0.003442
3569.265611,0.002245
3569.747814,0.001096
3570.230017,0.000785
3570.712220,0.000796
3571.194423,0.000615
3571.676626,0.000168
3572.158828,-0.000114
3572.641031,-0.000177
3573.123234,-0.000149
3573.605437,-0.000061
3574.087640,-0.000011
3574.569843,-0.000001
3575.052046,-0.000039
3575.534248,-0.000158
3576.016451,-0.000370
3576.498654,-0.000518
3576.980857,-0.000355
3577.463060,-0.000084
3577.945263,-0.000125
3578.427466,-0.000166
3578.909668,0.000057
3579.391871,0.000075
3579.874074,0.000014
3580.356277,0.000222
3580.838480,0.000351
3581.320683,0.000196
3581.802886,-0.000020
3582.285089,0.000035
3582.767291,0.000427
3583.249494,0.000750
3583.731697,0.000945
3584.213900,0.001172
3584.696103,0.001154
3585.178306,0.001307
3585.660509,0.001913
3586.142711,0.002499
3586.624914,0.003518
3587.107117,0.004393
3587.589320,0.003759
3588.071523,0.002883
3588.553726,0.003301
3589.035929,0.004138
3589.518132,0.003404
3590.000334,0.001776
3590.482537,0.001193
3590.964740,0.001105
3591.446943,0.000744
3591.929146,0.000617
3592.411349,0.000796
3592.893552,0.001196
3593.375754,0.001818
3593.857957,0.001973
3594.340160,0.001467
3594.822363,0.001297
3595.304566,0.001812
3595.786769,0.002206
3596.268972,0.001922
3596.751175,0.001346
3597.233377,0.000784
3597.715580,0.000471
3598.197783,0.000883
3598.679986,0.001300
3599.162189,0.001062
3599.644392,0.001003
3600.126595,0.001221
3600.608797,0.001211
3601.091000,0.001347
3601.573203,0.001541
3602.055406,0.001198
3602.537609,0.000734
3603.019812,0.000669
3603.502015,0.000800
3603.984217,0.000793
3604.466420,0.000725
3604.948623,0.000861
3605.430826,0.001099
3605.913029,0.001418
3606.395232,0.001785
3606.877435,0.002421
3607.359638,0.003316
3607.841840,0.003330
3608.324043,0.002611
3608.806246,0.002608
3609.288449,0.004034
3609.770652,0.005418
3610.252855,0.004213
3610.735058,0.002197
3611.217260,0.001757
3611.699463,0.002111
3612.181666,0.002722
3612.663869,0.003870
3613.146072,0.004497
3613.628275,0.003498
3614.110478,0.002327
3614.592681,0.002611
3615.074883,0.003296
3615.557086,0.002881
3616.039289,0.002263
3616.521492,0.002339
3617.003695,0.002528
3617.485898,0.003071
3617.968101,0.004202
3618.450303,0.004455
3618.932506,0.003497
3619.414709,0.003490
3619.896912,0.004973
3620.379115,0.004958
3620.861318,0.002981
3621.343521,0.001983
3621.825724,0.001794
3622.307926,0.001269
3622.790129,0.001083
3623.272332,0.001190
3623.754535,0.001334
3624.236738,0.001605
3624.718941,0.001722
3625.201144,0.001941
3625.683346,0.002455
3626.165549,0.003057
3626.647752,0.003550
3627.129955,0.003821
3627.612158,0.004055
3628.094361,0.005135
3628.576564,0.007646
3629.058767,0.009057
3629.540969,0.008498
3630.023172,0.008047
3630.505375,0.006110
3630.987578,0.003281
3631.469781,0.002025
3631.951984,0.001581
3632.434187,0.001292
3632.916389,0.001264
3633.398592,0.001404
3633.880795,0.001928
3634.362998,0.002295
3634.845201,0.001640
3635.327404,0.000597
3635.809607,0.000278
3636.291809,0.000373
3636.774012,0.000335
3637.256215,0.000335
3637.738418,0.000392
3638.220621,0.000515
3638.702824,0.000560
3639.185027,0.000392
3639.667230,0.000219
3640.149432,0.000159
3640.631635,0.000307
3641.113838,0.000591
3641.596041,0.000809
3642.078244,0.001054
3642.560447,0.001449
3643.042650,0.001663
3643.524852,0.001508
3644.007055,0.001527
3644.489258,0.001888
3644.971461,0.002262
3645.453664,0.002751
3645.935867,0.003416
3646.418070,0.004298
3646.900273,0.005680
3647.382475,0.007278
3647.864678,0.008132
3648.346881,0.007327
3648.829084,0.006130
3649.311287,0.007082
3649.793490,0.008581
3650.275693,0.007414
3650.757895,0.006241
3651.240098,0.006671
3651.722301,0.006382
3652.204504,0.004466
3652.686707,0.002536
3653.168910,0.001821
3653.651113,0.001670
3654.133316,0.001412
3654.615518,0.001368
3655.097721,0.001570
3655.579924,0.001972
3656.062127,0.003043
3656.544330,0.004823
3657.026533,0.004960
3657.508736,0.002639
3657.990938,0.000893
3658.473141,0.000491
3658.955344,0.000353
3659.437547,0.000299
3659.919750,0.000255
3660.401953,0.000244
3660.884156,0.000340
3661.366359,0.000302
3661.848561,0.000161
3662.330764,0.000138
3662.812967,0.000205
3663.295170,0.000258
3663.777373,0.000295
3664.259576,0.000373
3664.741779,0.000612
3665.223981,0.000933
3665.706184,0.001123
3666.188387,0.001278
3666.670590,0.001528
3667.152793,0.001828
3667.634996,0.002260
3668.117199,0.002957
3668.599401,0.004330
3669.081604,0.006229
3669.563807,0.006693
3670.046010,0.005575
3670.528213,0.006051
3671.010416,0.008485
3671.492619,0.008588
3671.974822,0.005732
3672.457024,0.003905
3672.939227,0.003538
3673.421430,0.003533
3673.903633,0.004124
3674.385836,0.005353
3674.868039,0.007448
3675.350242,0.009630
3675.832444,0.010008
3676.314647,0.009518
3676.796850,0.007918
3677.279053,0.004868
3677.761256,0.002987
3678.243459,0.002283
3678.725662,0.001646
3679.207865,0.001867
3679.690067,0.002700
3680.172270,0.002643
3680.654473,0.001704
3681.136676,0.001035
3681.618879,0.000859
3682.101082,0.000737
3682.583285,0.000716
3683.065487,0.000866
3683.547690,0.001048
3684.029893,0.001283
3684.512096,0.001623
3684.994299,0.001865
3685.476502,0.001891
3685.958705,0.002012
3686.440908,0.002206
3686.923110,0.002511
3687.405313,0.003339
3687.887516,0.004593
3688.369719,0.006639
3688.851922,0.008823
3689.334125,0.007711
3689.816328,0.004661
3690.298530,0.003432
3690.780733,0.003748
3691.262936,0.004661
3691.745139,0.005266
3692.227342,0.003964
3692.709545,0.001994
3693.191748,0.001176
3693.673951,0.001041
3694.156153,0.000965
3694.638356,0.000972
3695.120559,0.000870
3695.602762,0.000631
3696.084965,0.000605
3696.567168,0.000831
3697.049371,0.001009
3697.531573,0.000979
3698.013776,0.000962
3698.495979,0.001028
3698.978182,0.000898
3699.460385,0.000934
3699.942588,0.001311
3700.424791,0.001558
3700.906993,0.001737
3701.389196,0.002219
3701.871399,0.003400
3702.353602,0.004133
3702.835805,0.002859
3703.318008,0.001387
3703.800211,0.001124
3704.282414,0.001116
3704.764616,0.000990
3705.246819,0.001129
3705.729022,0.001539
3706.211225,0.001816
3706.693428,0.001891
3707.175631,0.002066
3707.657834,0.002291
3708.140036,0.002615
3708.622239,0.003235
3709.104442,0.004232
3709.586645,0.005684
3710.068848,0.006169
3710.551051,0.004729
3711.033254,0.003794
3711.515457,0.004388
3711.997659,0.005668
3712.479862,0.007345
3712.962065,0.007052
3713.444268,0.004252
3713.926471,0.002123
3714.408674,0.001429
3714.890877,0.001548
3715.373079,0.001749
3715.855282,0.001375
3716.337485,0.001029
3716.819688,0.001029
3717.301891,0.001085
3717.784094,0.001296
3718.266297,0.001469
3718.748500,0.001832
3719.230702,0.002517
3719.712905,0.002520
3720.195108,0.002008
3720.677311,0.001883
3721.159514,0.001968
3721.641717,0.002319
3722.123920,0.003290
3722.606122,0.004265
3723.088325,0.004089
3723.570528,0.003100
3724.052731,0.002587
3724.534934,0.002532
3725.017137,0.002703
3725.499340,0.003116
3725.981542,0.003189
3726.463745,0.003439
3726.945948,0.004277
3727.428151,0.004228
3727.910354,0.003247
3728.392557,0.002710
3728.874760,0.002624
3729.356963,0.002671
3729.839165,0.002900
3730.321368,0.003130
3730.803571,0.003574
3731.285774,0.004523
3731.767977,0.005852
3732.250180,0.007958
3732.732383,0.009290
3733.214585,0.007593
3733.696788,0.005670
3734.178991,0.005612
3734.661194,0.006759
3735.143397,0.008429
3735.625600,0.009220
3736.107803,0.008242
3736.590006,0.007329
3737.072208,0.007752
3737.554411,0.007104
3738.036614,0.004957
3738.518817,0.004344
3739.001020,0.004674
3739.483223,0.004098
3739.965426,0.003546
3740.447628,0.003822
3740.929831,0.004624
3741.412034,0.005528
3741.894237,0.005792
3742.376440,0.005251
3742.858643,0.005105
3743.340846,0.005844
3743.823049,0.007637
3744.305251,0.011145
3744.787454,0.014810
3745.269657,0.014983
3745.751860,0.011120
3746.234063,0.007209
3746.716266,0.005418
3747.198469,0.005033
3747.680671,0.005381
3748.162874,0.006108
3748.645077,0.006610
3749.127280,0.008077
3749.609483,0.011253
3750.091686,0.012120
3750.573889,0.008817
3751.056092,0.006431
3751.538294,0.006354
3752.020497,0.007464
3752.502700,0.009455
3752.984903,0.009459
3753.467106,0.006294
3753.949309,0.003700
3754.431512,0.002733
3754.913714,0.002373
3755.395917,0.002343
3755.878120,0.002505
3756.360323,0.002876
3756.842526,0.003731
3757.324729,0.003957
3757.806932,0.002952
3758.289134,0.002223
3758.771337,0.002338
3759.253540,0.002887
3759.735743,0.003868
3760.217946,0.004476
3760.700149,0.003544
3761.182352,0.001935
3761.664555,0.001201
3762.146757,0.001210
3762.628960,0.001191
3763.111163,0.001086
3763.593366,0.001024
3764.075569,0.001108
3764.557772,0.001446
3765.039975,0.001777
3765.522177,0.002355
3766.004380,0.003683
3766.486583,0.004128
3766.968786,0.002693
3767.450989,0.001551
3767.933192,0.001347
3768.415395,0.001349
3768.897598,0.001759
3769.379800,0.002380
3769.862003,0.003386
3770.344206,0.004402
3770.826409,0.003539
3771.308612,0.001679
3771.790815,0.000733
3772.273018,0.000368
3772.755220,0.000140
3773.237423,0.000138
3773.719626,0.000242
3774.201829,0.000343
3774.684032,0.000477
3775.166235,0.000625
3775.648438,0.000586
3776.130641,0.000544
3776.612843,0.000663
3777.095046,0.000726
3777.577249,0.000823
3778.059452,0.001040
3778.541655,0.001327
3779.023858,0.001748
3779.506061,0.002546
3779.988263,0.003294
3780.470466,0.002696
3780.952669,0.001382
3781.434872,0.000813
3781.917075,0.000779
3782.399278,0.000723
3782.881481,0.000594
3783.363684,0.000571
3783.845886,0.000672
3784.328089,0.000875
3784.810292,0.001241
3785.292495,0.001337
3785.774698,0.000996
3786.256901,0.000631
3786.739104,0.000435
3787.221306,0.000286
3787.703509,0.000050
3788.185712,-0.000057
3788.667915,0.000060
3789.150118,0.000090
3789.632321,-0.000003
3790.114524,0.000079
3790.596726,0.000348
3791.078929,0.000511
3791.561132,0.000559
3792.043335,0.000639
3792.525538,0.000745
3793.007741,0.000865
3793.489944,0.000918
3793.972147,0.000959
3794.454349,0.001091
3794.936552,0.001295
3795.418755,0.001743
3795.900958,0.002430
3796.383161,0.003519
3796.865364,0.004763
3797.347567,0.004534
3797.829769,0.003323
3798.311972,0.002933
3798.794175,0.002997
3799.276378,0.003021
3799.758581,0.003187
3800.240784,0.003712
3800.722987,0.004715
3801.205190,0.006294
3801.687392,0.008401
3802.169595,0.008442
3802.651798,0.005772
3803.134001,0.004110
3803.616204,0.003786
3804.098407,0.002993
3804.580610,0.002188
3805.062812,0.002173
3805.545015,0.002428
3806.027218,0.002778
3806.509421,0.003408
3806.991624,0.004877
3807.473827,0.006592
3807.956030,0.005609
3808.438233,0.002863
3808.920435,0.001355
3809.402638,0.001045
3809.884841,0.001022
3810.367044,0.001012
3810.849247,0.001056
3811.331450,0.001208
3811.813653,0.001405
3812.295855,0.001573
3812.778058,0.001687
3813.260261,0.001753
3813.742464,0.001786
3814.224667,0.002052
3814.706870,0.002686
3815.189073,0.003514
3815.671275,0.004682
3816.153478,0.006845
3816.635681,0.008613
3817.117884,0.007030
3817.600087,0.004426
3818.082290,0.003437
3818.564493,0.003390
3819.046696,0.003616
3819.528898,0.004019
3820.011101,0.004611
3820.493304,0.005742
3820.975507,0.007403
3821.457710,0.008301
3821.939913,0.007881
3822.422116,0.006725
3822.904318,0.004523
3823.386521,0.002552
3823.868724,0.001909
3824.350927,0.001809
3824.833130,0.001822
3825.315333,0.001777
3825.797536,0.001896
3826.279739,0.002341
3826.761941,0.002953
3827.244144,0.003628
3827.726347,0.003280
3828.208550,0.002298
3828.690753,0.001970
3829.172956,0.001900
3829.655159,0.001820
3830.137361,0.001889
3830.619564,0.002129
3831.101767,0.002645
3831.583970,0.003785
3832.066173,0.005247
3832.548376,0.005081
3833.030579,0.003487
3833.512782,0.002709
3833.994984,0.002949
3834.477187,0.003596
3834.959390,0.004967
3835.441593,0.006459
3835.923796,0.005961
3836.405999,0.004361
3836.888202,0.004102
3837.370404,0.005141
3837.852607,0.007178
3838.334810,0.008998
3838.817013,0.007803
3839.299216,0.005246
3839.781419,0.004199
3840.263622,0.004467
3840.745825,0.004640
3841.228027,0.004578
3841.710230,0.004303
3842.192433,0.003159
3842.674636,0.002169
3843.156839,0.002186
3843.639042,0.002834
3844.121245,0.003620
3844.603447,0.003265
3845.085650,0.001945
3845.567853,0.001231
3846.050056,0.001113
3846.532259,0.001151
3847.014462,0.001351
3847.496665,0.001570
3847.978867,0.001794
3848.461070,0.002165
3848.943273,0.002673
3849.425476,0.003254
3849.907679,0.004034
3850.389882,0.004716
3850.872085,0.004981
3851.354288,0.005398
3851.836490,0.006973
3852.318693,0.009839
3852.800896,0.011063
3853.283099,0.009466
3853.765302,0.009418
3854.247505,0.012071
3854.729708,0.013194
3855.211910,0.009725
3855.694113,0.005342
3856.176316,0.003138
3856.658519,0.002716
3857.140722,0.002948
3857.622925,0.003290
3858.105128,0.003037
3858.587331,0.002306
3859.069533,0.001840
3859.551736,0.001723
3860.033939,0.001752
3860.516142,0.001936
3860.998345,0.002434
3861.480548,0.003207
3861.962751,0.004190
3862.444953,0.004624
3862.927156,0.003799
3863.409359,0.003026
3863.891562,0.003257
3864.373765,0.003941
3864.855968,0.004910
3865.338171,0.006269
3865.820374,0.006528
3866.302576,0.004752
3866.784779,0.003082
3867.266982,0.002626
3867.749185,0.002688
3868.231388,0.002866
3868.713591,0.003305
3869.195794,0.004713
3869.677996,0.006437
3870.160199,0.007275
3870.642402,0.007238
3871.124605,0.005642
3871.606808,0.003646
3872.089011,0.002773
3872.571214,0.002222
3873.053417,0.001867
3873.535619,0.002294
3874.017822,0.003318
3874.500025,0.004342
3874.982228,0.004402
3875.464431,0.003345
3875.946634,0.002128
3876.428837,0.001521
3876.911039,0.001437
3877.393242,0.001389
3877.875445,0.001504
3878.357648,0.001710
3878.839851,0.001889
3879.322054,0.002316
3879.804257,0.002962
3880.286459,0.004180
3880.768662,0.005421
3881.250865,0.004973
3881.733068,0.003466
3882.215271,0.002532
3882.697474,0.002249
3883.179677,0.002276
3883.661880,0.002512
3884.144082,0.002579
3884.626285,0.002475
3885.108488,0.002748
3885.590691,0.003895
3886.072894,0.005787
3886.555097,0.006047
3887.037300,0.003677
3887.519502,0.001806
3888.001705,0.001515
3888.483908,0.001386
3888.966111,0.001267
3889.448314,0.001462
3889.930517,0.001729
3890.412720,0.002116
3890.894923,0.002699
3891.377125,0.003880
3891.859328,0.004924
3892.341531,0.003949
3892.823734,0.002102
3893.305937,0.001205
3893.788140,0.001131
3894.270343,0.001404
3894.752545,0.001619
3895.234748,0.001629
3895.716951,0.001617
3896.199154,0.001605
3896.681357,0.001581
3897.163560,0.001788
3897.645763,0.002194
3898.127966,0.002628
3898.610168,0.003205
3899.092371,0.003986
3899.574574,0.005345
3900.056777,0.005959
3900.538980,0.004534
3901.021183,0.003381
3901.503386,0.003715
3901.985588,0.005064
3902.467791,0.006027
3902.949994,0.004918
3903.432197,0.003506
3903.914400,0.003518
3904.396603,0.004578
3904.878806,0.005068
3905.361008,0.003626
3905.843211,0.002249
3906.325414,0.002111
3906.807617,0.001786
3907.289820,0.001060
3907.772023,0.000704
3908.254226,0.000471
3908.736429,0.000191
3909.218631,0.000195
3909.700834,0.000218
3910.183037,0.000068
3910.665240,0.000065
3911.147443,0.000149
3911.629646,0.000153
3912.111849,0.000172
3912.594051,0.000356
3913.076254,0.000602
3913.558457,0.000699
3914.040660,0.000701
3914.522863,0.000578
3915.005066,0.000453
3915.487269,0.000620
3915.969472,0.001001
3916.451674,0.001495
3916.933877,0.001979
3917.416080,0.002473
3917.898283,0.002674
3918.380486,0.001870
3918.862689,0.000926
3919.344892,0.000708
3919.827094,0.000996
3920.309297,0.001874
3920.791500,0.002322
3921.273703,0.001520
3921.755906,0.000772
3922.238109,0.000601
3922.720312,0.000495
3923.202515,0.000527
3923.684717,0.000935
3924.166920,0.001359
3924.649123,0.001391
3925.131326,0.001540
3925.613529,0.001856
3926.095732,0.001480
3926.577935,0.000687
3927.060137,0.000287
3927.542340,0.000226
3928.024543,0.000301
3928.506746,0.000424
3928.988949,0.000612
3929.471152,0.001039
3929.953355,0.001376
3930.435558,0.001303
3930.917760,0.001154
3931.399963,0.001073
3931.882166,0.001176
3932.364369,0.001698
3932.846572,0.002029
3933.328775,0.001533
3933.810978,0.000737
3934.293180,0.000368
3934.775383,0.000334
3935.257586,0.000195
3935.739789,0.000078
3936.221992,0.000074
3936.704195,-0.000013
3937.186398,0.000025
3937.668600,0.000197
3938.150803,0.000235
3938.633006,0.000291
3939.115209,0.000378
3939.597412,0.000266
3940.079615,0.000223
3940.561818,0.000326
3941.044021,0.000312
3941.526223,0.000501
3942.008426,0.000859
3942.490629,0.001068
3942.972832,0.001445
3943.455035,0.001674
3943.937238,0.001298
3944.419441,0.000914
3944.901643,0.000756
3945.383846,0.000577
3945.866049,0.000529
3946.348252,0.000646
3946.830455,0.000657
3947.312658,0.000628
3947.794861,0.000886
3948.277064,0.001204
3948.759266,0.001076
3949.241469,0.000670
3949.723672,0.000566
3950.205875,0.000934
3950.688078,0.000996
3951.170281,0.000382
3951.652484,0.000010
3952.134686,0.000023
3952.616889,0.000003
3953.099092,0.000111
3953.581295,0.000309
3954.063498,0.000406
3954.545701,0.000226
3955.027904,-0.000071
3955.510107,-0.000110
3955.992309,0.000018
3956.474512,0.000157
3956.956715,0.000234
3957.438918,0.000245
3957.921121,0.000164
3958.403324,0.000034
3958.885527,0.000058
3959.367729,0.000073
3959.849932,0.000017
3960.332135,0.000059
3960.814338,0.000114
3961.296541,0.000127
3961.778744,0.000183
3962.260947,0.000340
3962.743150,0.000340
3963.225352,0.000121
3963.707555,0.000034
3964.189758,0.000082
3964.671961,0.000217
3965.154164,0.000271
3965.636367,0.000013
3966.118570,-0.000149
3966.600772,-0.000048
3967.082975,-0.000068
3967.565178,-0.000194
3968.047381,-0.000199
3968.529584,-0.000117
3969.011787,-0.000084
3969.493990,-0.000153
3969.976192,-0.000193
3970.458395,-0.000110
3970.940598,-0.000032
3971.422801,0.000010
3971.905004,0.000028
3972.387207,0.000111
3972.869410,0.000296
3973.351613,0.000303
3973.833815,0.000231
3974.316018,0.000239
3974.798221,0.000068
3975.280424,-0.000071
3975.762627,0.000022
3976.244830,0.000051
3976.727033,0.000035
3977.209235,0.000063
3977.691438,0.000006
3978.173641,-0.000001
3978.655844,0.000034
3979.138047,-0.000087
3979.620250,-0.000139
3980.102453,-0.000033
3980.584656,0.000033
3981.066858,0.000033
3981.549061,-0.000064
3982.031264,-0.000119
3982.513467,0.000033
3982.995670,0.000126
3983.477873,0.000101
3983.960076,0.000149
3984.442278,0.000153
3984.924481,0.000042
3985.406684,-0.000108
3985.888887,-0.000168
3986.371090,-0.000053
3986.853293,-0.000027
3987.335496,-0.000176
3987.817699,-0.000255
3988.299901,-0.000220
3988.782104,-0.000253
3989.264307,-0.000356
3989.746510,-0.000254
3990.228713,-0.000013
3990.710916,0.000188
3991.193119,0.000310
3991.675321,0.000156
3992.157524,-0.000141
3992.639727,-0.000267
3993.121930,-0.000204
3993.604133,-0.000089
3994.086336,-0.000124
3994.568539,-0.000285
3995.050742,-0.000271
3995.532944,-0.000080
3996.015147,-0.000059
3996.497350,-0.000166
3996.979553,-0.000226
3997.461756,-0.000258
3997.943959,-0.000158
3998.426162,-0.000066
3998.908364,-0.000152
3999.390567,-0.000192
3999.872770,-0.000099
4000.354973,-0.000043
