XLabel,Wavenumber
YLabel,Absorbance
FileType,Absorbance
DisplayDirection,20300
PeakDirection,20312
899.790547,-0.000982
900.272750,-0.001349
900.754953,-0.000707
901.237156,-0.000610
901.719359,-0.000552
902.201562,0.000900
902.683764,0.002153
903.165967,0.000839
903.648170,-0.001263
904.130373,-0.002100
904.612576,-0.002112
905.094779,-0.000945
905.576982,0.000271
906.059184,0.000805
906.541387,0.001459
907.023590,0.001422
907.505793,0.000878
907.987996,0.000466
908.470199,0.000138
908.952402,0.000065
909.434605,-0.000590
909.916807,-0.001532
910.399010,-0.001440
910.881213,-0.001347
911.363416,-0.000895
911.845619,0.000866
912.327822,0.000889
912.810025,-0.000308
913.292227,-0.000140
913.774430,-0.000100
914.256633,0.000367
914.738836,0.001350
915.221039,0.000904
915.703242,0.000157
916.185445,0.000160
916.667648,0.000309
917.149850,0.000353
917.632053,0.000489
918.114256,0.000399
918.596459,-0.000233
919.078662,-0.000580
919.560865,-0.000146
920.043068,0.000783
920.525270,0.001285
921.007473,0.000740
921.489676,0.000527
921.971879,0.001269
922.454082,0.001714
922.936285,0.001569
923.418488,0.001026
923.900690,0.000472
924.382893,0.000506
924.865096,0.000643
925.347299,0.000821
925.829502,0.000872
926.311705,0.000437
926.793908,0.000603
927.276111,0.001200
927.758313,0.001058
928.240516,0.000676
928.722719,0.000842
929.204922,0.001000
929.687125,0.000688
930.169328,0.000925
930.651531,0.001682
931.133733,0.001740
931.615936,0.001278
932.098139,0.000814
932.580342,0.000324
933.062545,0.000209
933.544748,0.000352
934.026951,0.000259
934.509154,0.000616
934.991356,0.001050
935.473559,0.000482
935.955762,0.000405
936.437965,0.001274
936.920168,0.001541
937.402371,0.001139
937.884574,0.000650
938.366776,0.000288
938.848979,0.000245
939.331182,0.000975
939.813385,0.001669
940.295588,0.001216
940.777791,0.001115
941.259994,0.001647
941.742197,0.001306
942.224399,0.000808
942.706602,0.001017
943.188805,0.001040
943.671008,0.000313
944.153211,-0.000338
944.635414,-0.000243
945.117617,0.000264
945.599819,0.000716
946.082022,0.000790
946.564225,0.000611
947.046428,0.000514
947.528631,0.000491
948.010834,0.000308
948.493037,-0.000040
948.975240,-0.000097
949.457442,0.000127
949.939645,0.000376
950.421848,0.000672
950.904051,0.000719
951.386254,0.000608
951.868457,0.000721
952.350660,0.000692
952.832862,0.000283
953.315065,0.000056
953.797268,0.000243
954.279471,0.000322
954.761674,0.000238
955.243877,0.000157
955.726080,-0.000009
956.208282,0.000205
956.690485,0.000732
957.172688,0.000664
957.654891,0.000176
958.137094,0.000154
958.619297,0.000380
959.101500,0.000256
959.583703,0.000241
960.065905,0.000607
960.548108,0.000879
961.030311,0.000955
961.512514,0.000871
961.994717,0.000531
962.476920,0.000233
962.959123,0.000294
963.441325,0.000344
963.923528,0.000268
964.405731,0.000244
964.887934,0.000019
965.370137,0.000078
965.852340,0.000312
966.334543,-0.000088
966.816746,-0.000135
967.298948,0.000246
967.781151,-0.000031
968.263354,-0.000098
968.745557,0.000454
969.227760,0.000841
969.709963,0.000866
970.192166,0.000512
970.674368,0.000375
971.156571,0.000601
971.638774,0.000460
972.120977,0.000651
972.603180,0.001396
973.085383,0.001056
973.567586,0.000134
974.049789,0.000372
974.531991,0.000723
975.014194,0.000669
975.496397,0.001115
975.978600,0.000907
976.460803,0.000037
976.943006,-0.000008
977.425209,0.000135
977.907411,-0.000121
978.389614,-0.000387
978.871817,-0.000459
979.354020,-0.000049
979.836223,0.000462
980.318426,0.000532
980.800629,0.000476
981.282831,0.000346
981.765034,0.000105
982.247237,0.000189
982.729440,0.000245
983.211643,0.000042
983.693846,0.000067
984.176049,0.000179
984.658252,0.000159
985.140454,0.000123
985.622657,0.000149
986.104860,0.000258
986.587063,0.000349
987.069266,0.000215
987.551469,-0.000084
988.033672,-0.000023
988.515874,0.000206
988.998077,0.000154
989.480280,0.000190
989.962483,0.000275
990.444686,0.000170
990.926889,0.000267
991.409092,0.000511
991.891295,0.000296
992.373497,-0.000059
992.855700,0.000187
993.337903,0.000472
993.820106,0.000319
994.302309,0.000313
994.784512,0.000390
995.266715,0.000356
995.748917,0.000407
996.231120,0.000264
996.713323,0.000110
997.195526,0.000231
997.677729,0.000343
998.159932,0.000371
998.642135,0.000268
999.124338,0.000210
999.606540,0.000278
1000.088743,0.000196
1000.570946,0.000128
1001.053149,0.000218
1001.535352,0.000320
1002.017555,0.000367
1002.499758,0.000403
1002.981960,0.000343
1003.464163,0.000147
1003.946366,0.000145
1004.428569,0.000260
1004.910772,0.000210
1005.392975,0.000121
1005.875178,0.000081
1006.357381,0.000118
1006.839583,0.000069
1007.321786,-0.000066
1007.803989,0.000066
1008.286192,0.000259
1008.768395,0.000261
1009.250598,0.000270
1009.732801,0.000198
1010.215003,0.000099
1010.697206,0.000116
1011.179409,0.000054
1011.661612,0.000090
1012.143815,0.000357
1012.626018,0.000457
1013.108221,0.000230
1013.590423,0.000033
1014.072626,0.000117
1014.554829,0.000179
1015.037032,0.000150
1015.519235,0.000183
1016.001438,-0.000003
1016.483641,-0.000205
1016.965844,-0.000016
1017.448046,0.000213
1017.930249,0.000292
1018.412452,0.000368
1018.894655,0.000346
1019.376858,0.000187
1019.859061,0.000038
1020.341264,0.000040
1020.823466,0.000129
1021.305669,0.000125
1021.787872,0.000139
1022.270075,0.000195
1022.752278,0.000112
1023.234481,0.000041
1023.716684,0.000032
1024.198887,0.000009
1024.681089,0.000036
1025.163292,-0.000014
1025.645495,-0.000088
1026.127698,-0.000053
1026.609901,-0.000023
1027.092104,-0.000067
1027.574307,-0.000131
1028.056509,-0.000050
1028.538712,0.000028
1029.020915,-0.000031
1029.503118,-0.000057
1029.985321,-0.000115
1030.467524,-0.000126
1030.949727,-0.000054
1031.431930,-0.000111
1031.914132,-0.000198
1032.396335,-0.000172
1032.878538,-0.000061
1033.360741,-0.000054
1033.842944,-0.000112
1034.325147,-0.000084
1034.807350,-0.000165
1035.289552,-0.000232
1035.771755,-0.000244
1036.253958,-0.000437
1036.736161,-0.000491
1037.218364,-0.000351
1037.700567,-0.000329
1038.182770,-0.000307
1038.664973,-0.000238
1039.147175,-0.000241
1039.629378,-0.000277
1040.111581,-0.000233
1040.593784,-0.000143
1041.075987,-0.000141
1041.558190,-0.000151
1042.040393,-0.000203
1042.522595,-0.000298
1043.004798,-0.000262
1043.487001,-0.000208
1043.969204,-0.000267
1044.451407,-0.000391
1044.933610,-0.000348
1045.415813,-0.000135
1045.898015,-0.000068
1046.380218,-0.000042
1046.862421,0.000015
1047.344624,-0.000042
1047.826827,-0.000087
1048.309030,-0.000090
1048.791233,-0.000140
1049.273436,-0.000120
1049.755638,0.000110
1050.237841,0.000300
1050.720044,0.000157
1051.202247,-0.000135
1051.684450,-0.000231
1052.166653,-0.000093
1052.648856,-0.000006
1053.131058,0.000053
1053.613261,0.000241
1054.095464,0.000259
1054.577667,0.000145
1055.059870,0.000184
1055.542073,0.000172
1056.024276,0.000026
1056.506479,-0.000020
1056.988681,0.000031
1057.470884,-0.000003
1057.953087,-0.000093
1058.435290,-0.000081
1058.917493,-0.000064
1059.399696,-0.000077
1059.881899,0.000058
1060.364101,0.000214
1060.846304,0.000139
1061.328507,-0.000030
1061.810710,0.000005
1062.292913,0.000110
1062.775116,0.000110
1063.257319,0.000167
1063.739522,0.000173
1064.221724,0.000058
1064.703927,0.000063
1065.186130,0.000130
1065.668333,0.000154
1066.150536,0.000184
1066.632739,0.000165
1067.114942,0.000190
1067.597144,0.000293
1068.079347,0.000202
1068.561550,0.000034
1069.043753,0.000046
1069.525956,0.000076
1070.008159,0.000097
1070.490362,0.000108
1070.972564,0.000049
1071.454767,0.000071
1071.936970,0.000089
1072.419173,0.000077
1072.901376,0.000143
1073.383579,0.000135
1073.865782,0.000143
1074.347985,0.000174
1074.830187,0.000082
1075.312390,0.000114
1075.794593,0.000160
1076.276796,0.000075
1076.758999,0.000069
1077.241202,0.000024
1077.723405,0.000007
1078.205607,0.000168
1078.687810,0.000295
1079.170013,0.000255
1079.652216,0.000151
1080.134419,0.000165
1080.616622,0.000181
1081.098825,0.000183
1081.581028,0.000302
1082.063230,0.000327
1082.545433,0.000227
1083.027636,0.000140
1083.509839,0.000106
1083.992042,0.000117
1084.474245,0.000108
1084.956448,0.000127
1085.438650,0.000151
1085.920853,0.000098
1086.403056,0.000097
1086.885259,0.000225
1087.367462,0.000330
1087.849665,0.000317
1088.331868,0.000218
1088.814071,0.000118
1089.296273,0.000140
1089.778476,0.000169
1090.260679,0.000068
1090.742882,-0.000020
1091.225085,0.000079
1091.707288,0.000292
1092.189491,0.000332
1092.671693,0.000232
1093.153896,0.000206
1093.636099,0.000207
1094.118302,0.000164
1094.600505,0.000102
1095.082708,0.000170
1095.564911,0.000311
1096.047114,0.000252
1096.529316,0.000110
1097.011519,0.000096
1097.493722,0.000178
1097.975925,0.000255
1098.458128,0.000246
1098.940331,0.000169
1099.422534,0.000077
1099.904736,0.000114
1100.386939,0.000256
1100.869142,0.000234
1101.351345,0.000131
1101.833548,0.000099
1102.315751,0.000055
1102.797954,0.000050
1103.280156,0.000048
1103.762359,0.000039
1104.244562,0.000161
1104.726765,0.000220
1105.208968,0.000199
1105.691171,0.000292
1106.173374,0.000262
1106.655577,0.000122
1107.137779,0.000100
1107.619982,0.000061
1108.102185,-0.000024
1108.584388,-0.000059
1109.066591,-0.000035
1109.548794,0.000029
1110.030997,0.000098
1110.513199,0.000156
1110.995402,0.000164
1111.477605,0.000175
1111.959808,0.000248
1112.442011,0.000246
1112.924214,0.000134
1113.406417,0.000133
1113.888620,0.000231
1114.370822,0.000226
1114.853025,0.000190
1115.335228,0.000197
1115.817431,0.000220
1116.299634,0.000199
1116.781837,0.000112
1117.264040,0.000110
1117.746242,0.000163
1118.228445,0.000180
1118.710648,0.000199
1119.192851,0.000274
1119.675054,0.000411
1120.157257,0.000392
1120.639460,0.000229
1121.121663,0.000235
1121.603865,0.000333
1122.086068,0.000270
1122.568271,0.000213
1123.050474,0.000318
1123.532677,0.000338
1124.014880,0.000249
1124.497083,0.000251
1124.979285,0.000271
1125.461488,0.000263
1125.943691,0.000291
1126.425894,0.000311
1126.908097,0.000263
1127.390300,0.000192
1127.872503,0.000202
1128.354706,0.000297
1128.836908,0.000357
1129.319111,0.000312
1129.801314,0.000212
1130.283517,0.000159
1130.765720,0.000149
1131.247923,0.000149
1131.730126,0.000236
1132.212328,0.000312
1132.694531,0.000275
1133.176734,0.000259
1133.658937,0.000282
1134.141140,0.000336
1134.623343,0.000396
1135.105546,0.000363
1135.587748,0.000316
1136.069951,0.000292
1136.552154,0.000244
1137.034357,0.000176
1137.516560,0.000194
1137.998763,0.000263
1138.480966,0.000198
1138.963169,0.000179
1139.445371,0.000271
1139.927574,0.000224
1140.409777,0.000166
1140.891980,0.000186
1141.374183,0.000144
1141.856386,0.000107
1142.338589,0.000099
1142.820791,0.000060
1143.302994,0.000043
1143.785197,0.000067
1144.267400,0.000070
1144.749603,0.000087
1145.231806,0.000180
1145.714009,0.000238
1146.196212,0.000217
1146.678414,0.000226
1147.160617,0.000255
1147.642820,0.000238
1148.125023,0.000178
1148.607226,0.000154
1149.089429,0.000190
1149.571632,0.000214
1150.053834,0.000181
1150.536037,0.000075
1151.018240,0.000031
1151.500443,0.000097
1151.982646,0.000133
1152.464849,0.000210
1152.947052,0.000286
1153.429255,0.000202
1153.911457,0.000075
1154.393660,0.000031
1154.875863,0.000091
1155.358066,0.000122
1155.840269,0.000038
1156.322472,0.000002
1156.804675,0.000053
1157.286877,0.000077
1157.769080,0.000055
1158.251283,0.000013
1158.733486,-0.000036
1159.215689,-0.000007
1159.697892,0.000073
1160.180095,0.000115
1160.662298,0.000161
1161.144500,0.000150
1161.626703,0.000093
1162.108906,0.000098
1162.591109,0.000119
1163.073312,0.000101
1163.555515,0.000034
1164.037718,-0.000014
1164.519920,0.000001
1165.002123,0.000058
1165.484326,0.000136
1165.966529,0.000108
1166.448732,-0.000008
1166.930935,0.000011
1167.413138,0.000087
1167.895340,0.000017
1168.377543,-0.000044
1168.859746,0.000021
1169.341949,0.000104
1169.824152,0.000124
1170.306355,0.000040
1170.788558,-0.000012
1171.270761,0.000015
1171.752963,-0.000016
1172.235166,-0.000093
1172.717369,-0.000166
1173.199572,-0.000163
1173.681775,-0.000120
1174.163978,-0.000193
1174.646181,-0.000247
1175.128383,-0.000163
1175.610586,-0.000096
1176.092789,-0.000075
1176.574992,-0.000078
1177.057195,-0.000156
1177.539398,-0.000260
1178.021601,-0.000292
1178.503804,-0.000168
1178.986006,-0.000074
1179.468209,-0.000128
1179.950412,-0.000084
1180.432615,-0.000022
1180.914818,-0.000080
1181.397021,-0.000171
1181.879224,-0.000260
1182.361426,-0.000204
1182.843629,-0.000163
1183.325832,-0.000232
1183.808035,-0.000175
1184.290238,-0.000180
1184.772441,-0.000267
1185.254644,-0.000244
1185.736847,-0.000255
1186.219049,-0.000245
1186.701252,-0.000150
1187.183455,-0.000114
1187.665658,-0.000153
1188.147861,-0.000268
1188.630064,-0.000355
1189.112267,-0.000274
1189.594469,-0.000163
1190.076672,-0.000199
1190.558875,-0.000237
1191.041078,-0.000176
1191.523281,-0.000187
1192.005484,-0.000193
1192.487687,-0.000109
1192.969889,-0.000111
1193.452092,-0.000198
1193.934295,-0.000269
1194.416498,-0.000278
1194.898701,-0.000254
1195.380904,-0.000275
1195.863107,-0.000307
1196.345310,-0.000280
1196.827512,-0.000259
1197.309715,-0.000289
1197.791918,-0.000276
1198.274121,-0.000294
1198.756324,-0.000379
1199.238527,-0.000360
1199.720730,-0.000338
1200.202932,-0.000368
1200.685135,-0.000361
1201.167338,-0.000364
1201.649541,-0.000350
1202.131744,-0.000235
1202.613947,-0.000165
1203.096150,-0.000265
1203.578353,-0.000322
1204.060555,-0.000231
1204.542758,-0.000134
1205.024961,-0.000084
1205.507164,-0.000069
1205.989367,-0.000044
1206.471570,-0.000037
1206.953773,-0.000067
1207.435975,-0.000048
1207.918178,-0.000007
1208.400381,-0.000027
1208.882584,-0.000045
1209.364787,-0.000030
1209.846990,-0.000121
1210.329193,-0.000224
1210.811396,-0.000175
1211.293598,-0.000092
1211.775801,-0.000058
1212.258004,-0.000057
1212.740207,0.000011
1213.222410,0.000088
1213.704613,0.000011
1214.186816,-0.000021
1214.669018,0.000045
1215.151221,0.000117
1215.633424,0.000230
1216.115627,0.000238
1216.597830,0.000199
1217.080033,0.000283
1217.562236,0.000378
1218.044439,0.000426
1218.526641,0.000387
1219.008844,0.000295
1219.491047,0.000333
1219.973250,0.000374
1220.455453,0.000341
1220.937656,0.000403
1221.419859,0.000407
1221.902061,0.000381
1222.384264,0.000543
1222.866467,0.000651
1223.348670,0.000570
1223.830873,0.000533
1224.313076,0.000612
1224.795279,0.000695
1225.277481,0.000768
1225.759684,0.000857
1226.241887,0.000912
1226.724090,0.000964
1227.206293,0.001027
1227.688496,0.001095
1228.170699,0.001179
1228.652902,0.001208
1229.135104,0.001277
1229.617307,0.001392
1230.099510,0.001411
1230.581713,0.001441
1231.063916,0.001491
1231.546119,0.001491
1232.028322,0.001590
1232.510524,0.001852
1232.992727,0.002134
1233.474930,0.002232
1233.957133,0.002168
1234.439336,0.002176
1234.921539,0.002308
1235.403742,0.002447
1235.885945,0.002537
1236.368147,0.002590
1236.850350,0.002689
1237.332553,0.002850
1237.814756,0.003028
1238.296959,0.003303
1238.779162,0.003520
1239.261365,0.003485
1239.743567,0.003459
1240.225770,0.003602
1240.707973,0.003833
1241.190176,0.004003
1241.672379,0.004053
1242.154582,0.004219
1242.636785,0.004466
1243.118988,0.004670
1243.601190,0.004933
1244.083393,0.005141
1244.565596,0.005236
1245.047799,0.005347
1245.530002,0.005523
1246.012205,0.005714
1246.494408,0.005876
1246.976610,0.006048
1247.458813,0.006174
1247.941016,0.006259
1248.423219,0.006477
1248.905422,0.006751
1249.387625,0.006932
1249.869828,0.007091
1250.352031,0.007237
1250.834233,0.007399
1251.316436,0.007575
1251.798639,0.007619
1252.280842,0.007644
1252.763045,0.007703
1253.245248,0.007639
1253.727451,0.007462
1254.209653,0.007202
1254.691856,0.006986
1255.174059,0.006882
1255.656262,0.006754
1256.138465,0.006568
1256.620668,0.006310
1257.102871,0.006056
1257.585073,0.005929
1258.067276,0.005929
1258.549479,0.005908
1259.031682,0.005755
1259.513885,0.005699
1259.996088,0.005914
1260.478291,0.006178
1260.960494,0.006129
1261.442696,0.005998
1261.924899,0.006295
1262.407102,0.007145
1262.889305,0.009141
1263.371508,0.011615
1263.853711,0.011926
1264.335914,0.010056
1264.818116,0.008248
1265.300319,0.007031
1265.782522,0.006232
1266.264725,0.005988
1266.746928,0.006003
1267.229131,0.006071
1267.711334,0.006206
1268.193537,0.006312
1268.675739,0.006527
1269.157942,0.006904
1269.640145,0.007223
1270.122348,0.007469
1270.604551,0.007650
1271.086754,0.007738
1271.568957,0.007824
1272.051159,0.007922
1272.533362,0.007978
1273.015565,0.007943
1273.497768,0.007825
1273.979971,0.007676
1274.462174,0.007489
1274.944377,0.007300
1275.426580,0.007162
1275.908782,0.007022
1276.390985,0.006859
1276.873188,0.006634
1277.355391,0.006399
1277.837594,0.006333
1278.319797,0.006195
1278.802000,0.005903
1279.284202,0.005801
1279.766405,0.005698
1280.248608,0.005448
1280.730811,0.005313
1281.213014,0.005242
1281.695217,0.005086
1282.177420,0.004856
1282.659622,0.004603
1283.141825,0.004369
1283.624028,0.004186
1284.106231,0.004036
1284.588434,0.003891
1285.070637,0.003755
1285.552840,0.003586
1286.035043,0.003445
1286.517245,0.003340
1286.999448,0.003222
1287.481651,0.003131
1287.963854,0.002964
1288.446057,0.002768
1288.928260,0.002648
1289.410463,0.002469
1289.892665,0.002294
1290.374868,0.002225
1290.857071,0.002161
1291.339274,0.002061
1291.821477,0.001981
1292.303680,0.001917
1292.785883,0.001797
1293.268086,0.001669
1293.750288,0.001599
1294.232491,0.001503
1294.714694,0.001329
1295.196897,0.001153
1295.679100,0.001104
1296.161303,0.001133
1296.643506,0.001039
1297.125708,0.000902
1297.607911,0.000920
1298.090114,0.000944
1298.572317,0.000852
1299.054520,0.000830
1299.536723,0.000881
1300.018926,0.000847
1300.501129,0.000739
1300.983331,0.000615
1301.465534,0.000551
1301.947737,0.000492
1302.429940,0.000450
1302.912143,0.000563
1303.394346,0.000587
1303.876549,0.000489
1304.358751,0.000516
1304.840954,0.000480
1305.323157,0.000294
1305.805360,0.000224
1306.287563,0.000220
1306.769766,0.000213
1307.251969,0.000265
1307.734172,0.000334
1308.216374,0.000368
1308.698577,0.000300
1309.180780,0.000198
1309.662983,0.000186
1310.145186,0.000094
1310.627389,0.000013
1311.109592,0.000085
1311.591794,0.000080
1312.073997,0.000048
1312.556200,0.000035
1313.038403,-0.000048
1313.520606,-0.000103
1314.002809,-0.000133
1314.485012,-0.000124
1314.967214,-0.000070
1315.449417,-0.000070
1315.931620,-0.000132
1316.413823,-0.000151
1316.896026,-0.000032
1317.378229,0.000082
1317.860432,-0.000004
1318.342635,-0.000079
1318.824837,0.000135
1319.307040,0.000357
1319.789243,0.000345
1320.271446,0.000267
1320.753649,0.000175
1321.235852,0.000200
1321.718055,0.000308
1322.200257,0.000280
1322.682460,0.000268
1323.164663,0.000314
1323.646866,0.000328
1324.129069,0.000296
1324.611272,0.000099
1325.093475,-0.000270
1325.575678,-0.000608
1326.057880,-0.000405
1326.540083,0.000370
1327.022286,0.000900
1327.504489,0.000888
1327.986692,0.000733
1328.468895,0.000662
1328.951098,0.000610
1329.433300,0.000523
1329.915503,0.000548
1330.397706,0.000649
1330.879909,0.000706
1331.362112,0.000805
1331.844315,0.000827
1332.326518,0.000709
1332.808721,0.000618
1333.290923,0.000595
1333.773126,0.000590
1334.255329,0.000563
1334.737532,0.000548
1335.219735,0.000556
1335.701938,0.000674
1336.184141,0.000881
1336.666343,0.000890
1337.148546,0.000805
1337.630749,0.000860
1338.112952,0.000914
1338.595155,0.000938
1339.077358,0.000908
1339.559561,0.000756
1340.041764,0.000721
1340.523966,0.000822
1341.006169,0.000785
1341.488372,0.000674
1341.970575,0.000600
1342.452778,0.000532
1342.934981,0.000454
1343.417184,0.000496
1343.899386,0.000779
1344.381589,0.000921
1344.863792,0.000803
1345.345995,0.000747
1345.828198,0.000688
1346.310401,0.000660
1346.792604,0.000771
1347.274806,0.000813
1347.757009,0.000772
1348.239212,0.000771
1348.721415,0.000856
1349.203618,0.000924
1349.685821,0.000854
1350.168024,0.000881
1350.650227,0.001018
1351.132429,0.000946
1351.614632,0.000801
1352.096835,0.000832
1352.579038,0.000892
1353.061241,0.000893
1353.543444,0.000917
1354.025647,0.000979
1354.507849,0.001080
1354.990052,0.001042
1355.472255,0.000845
1355.954458,0.000914
1356.436661,0.001070
1356.918864,0.000940
1357.401067,0.000826
1357.883270,0.000835
1358.365472,0.000844
1358.847675,0.000795
1359.329878,0.000754
1359.812081,0.000852
1360.294284,0.000881
1360.776487,0.000862
1361.258690,0.000962
1361.740892,0.000988
1362.223095,0.001050
1362.705298,0.001343
1363.187501,0.001402
1363.669704,0.000874
1364.151907,0.000491
1364.634110,0.000629
1365.116313,0.000759
1365.598515,0.000609
1366.080718,0.000436
1366.562921,0.000456
1367.045124,0.000502
1367.527327,0.000396
1368.009530,0.000433
1368.491733,0.000599
1368.973935,0.000457
1369.456138,0.000210
1369.938341,0.000280
1370.420544,0.000380
1370.902747,0.000230
1371.384950,0.000172
1371.867153,0.000318
1372.349355,0.000405
1372.831558,0.000449
1373.313761,0.000599
1373.795964,0.000708
1374.278167,0.000558
1374.760370,0.000403
1375.242573,0.000430
1375.724776,0.000359
1376.206978,0.000136
1376.689181,0.000013
1377.171384,0.000048
1377.653587,0.000132
1378.135790,0.000098
1378.617993,-0.000037
1379.100196,-0.000090
1379.582398,-0.000104
1380.064601,-0.000115
1380.546804,0.000010
1381.029007,0.000103
1381.511210,0.000074
1381.993413,0.000005
1382.475616,-0.000045
1382.957819,0.000015
1383.440021,0.000070
1383.922224,0.000109
1384.404427,0.000216
1384.886630,0.000265
1385.368833,0.000260
1385.851036,0.000397
1386.333239,0.000682
1386.815441,0.001000
1387.297644,0.001326
1387.779847,0.001237
1388.262050,0.000693
1388.744253,0.000315
1389.226456,0.000151
1389.708659,0.000124
1390.190862,0.000217
1390.673064,0.000341
1391.155267,0.000457
1391.637470,0.000487
1392.119673,0.000480
1392.601876,0.000535
1393.084079,0.000631
1393.566282,0.000848
1394.048484,0.001392
1394.530687,0.001738
1395.012890,0.001264
1395.495093,0.000960
1395.977296,0.000964
1396.459499,0.000722
1396.941702,0.000621
1397.423905,0.000824
1397.906107,0.000957
1398.388310,0.000981
1398.870513,0.001219
1399.352716,0.001328
1399.834919,0.000883
1400.317122,0.000571
1400.799325,0.000588
1401.281527,0.000577
1401.763730,0.000464
1402.245933,0.000396
1402.728136,0.000407
1403.210339,0.000446
1403.692542,0.000583
1404.174745,0.000726
1404.656947,0.000834
1405.139150,0.000805
1405.621353,0.000545
1406.103556,0.000454
1406.585759,0.000475
1407.067962,0.000297
1407.550165,0.000132
1408.032368,0.000236
1408.514570,0.000402
1408.996773,0.000324
1409.478976,0.000265
1409.961179,0.000350
1410.443382,0.000277
1410.925585,0.000246
1411.407788,0.000391
1411.889990,0.000378
1412.372193,0.000294
1412.854396,0.000348
1413.336599,0.000352
1413.818802,0.000292
1414.301005,0.000215
1414.783208,0.000142
1415.265411,0.000249
1415.747613,0.000368
1416.229816,0.000412
1416.712019,0.000612
1417.194222,0.000868
1417.676425,0.001000
1418.158628,0.001054
1418.640831,0.001335
1419.123033,0.001918
1419.605236,0.001790
1420.087439,0.000971
1420.569642,0.000568
1421.051845,0.000386
1421.534048,0.000253
1422.016251,0.000287
1422.498454,0.000396
1422.980656,0.000430
1423.462859,0.000458
1423.945062,0.000609
1424.427265,0.000488
1424.909468,0.000053
1425.391671,-0.000065
1425.873874,0.000117
1426.356076,0.000170
1426.838279,0.000102
1427.320482,0.000052
1427.802685,0.000043
1428.284888,0.000102
1428.767091,0.000184
1429.249294,0.000319
1429.731497,0.000580
1430.213699,0.000568
1430.695902,0.000198
1431.178105,-0.000011
1431.660308,-0.000009
1432.142511,0.000035
1432.624714,0.000072
1433.106917,0.000081
1433.589119,0.000071
1434.071322,0.000028
1434.553525,0.000024
1435.035728,0.000118
1435.517931,0.000408
1436.000134,0.001112
1436.482337,0.002007
1436.964539,0.001866
1437.446742,0.000747
1437.928945,0.000056
1438.411148,-0.000249
1438.893351,-0.000302
1439.375554,-0.000163
1439.857757,-0.000165
1440.339960,-0.000255
1440.822162,-0.000267
1441.304365,-0.000347
1441.786568,-0.000302
1442.268771,-0.000129
1442.750974,-0.000164
1443.233177,-0.000312
1443.715380,-0.000383
1444.197582,-0.000380
1444.679785,-0.000384
1445.161988,-0.000406
1445.644191,-0.000392
1446.126394,-0.000400
1446.608597,-0.000311
1447.090800,-0.000030
1447.573003,0.000341
1448.055205,0.000505
1448.537408,0.000189
1449.019611,-0.000114
1449.501814,-0.000240
1449.984017,-0.000356
1450.466220,-0.000321
1450.948423,-0.000288
1451.430625,-0.000269
1451.912828,-0.000113
1452.395031,-0.000118
1452.877234,-0.000213
1453.359437,-0.000205
1453.841640,-0.000177
1454.323843,-0.000029
1454.806046,0.000285
1455.288248,0.000625
1455.770451,0.000904
1456.252654,0.001597
1456.734857,0.002657
1457.217060,0.001964
1457.699263,0.000921
1458.181466,0.000744
1458.663668,0.000530
1459.145871,0.000252
1459.628074,0.000102
1460.110277,-0.000122
1460.592480,-0.000288
1461.074683,-0.000347
1461.556886,-0.000419
1462.039089,-0.000451
1462.521291,-0.000373
1463.003494,-0.000275
1463.485697,-0.000097
1463.967900,0.000184
1464.450103,0.000523
1464.932306,0.000788
1465.414509,0.000417
1465.896711,-0.000113
1466.378914,-0.000250
1466.861117,-0.000244
1467.343320,-0.000271
1467.825523,-0.000337
1468.307726,-0.000388
1468.789929,-0.000338
1469.272131,-0.000302
1469.754334,-0.000305
1470.236537,-0.000203
1470.718740,0.000022
1471.200943,0.000359
1471.683146,0.000957
1472.165349,0.001287
1472.647552,0.000849
1473.129754,0.000808
1473.611957,0.001014
1474.094160,0.000491
1474.576363,0.000040
1475.058566,0.000006
1475.540769,0.000186
1476.022972,0.000584
1476.505174,0.000647
1476.987377,0.000208
1477.469580,-0.000096
1477.951783,-0.000227
1478.433986,-0.000267
1478.916189,-0.000246
1479.398392,-0.000286
1479.880595,-0.000258
1480.362797,-0.000103
1480.845000,-0.000004
1481.327203,-0.000059
1481.809406,-0.000219
1482.291609,-0.000358
1482.773812,-0.000415
1483.256015,-0.000392
1483.738217,-0.000360
1484.220420,-0.000329
1484.702623,-0.000218
1485.184826,-0.000190
1485.667029,-0.000179
1486.149232,0.000024
1486.631435,0.000309
1487.113638,0.000616
1487.595840,0.000588
1488.078043,0.000245
1488.560246,0.000246
1489.042449,0.000571
1489.524652,0.000929
1490.006855,0.001073
1490.489058,0.000940
1490.971260,0.000702
1491.453463,0.000293
1491.935666,-0.000082
1492.417869,-0.000166
1492.900072,-0.000105
1493.382275,-0.000109
1493.864478,-0.000140
1494.346680,-0.000062
1494.828883,0.000173
1495.311086,0.000599
1495.793289,0.001319
1496.275492,0.001756
1496.757695,0.000994
1497.239898,0.000307
1497.722101,0.000342
1498.204303,0.000721
1498.686506,0.001082
1499.168709,0.000934
1499.650912,0.000449
1500.133115,0.000230
1500.615318,0.000232
1501.097521,0.000289
1501.579723,0.000376
1502.061926,0.000413
1502.544129,0.000358
1503.026332,0.000341
1503.508535,0.000447
1503.990738,0.000650
1504.472941,0.000972
1504.955144,0.001574
1505.437346,0.002589
1505.919549,0.003178
1506.401752,0.003107
1506.883955,0.003371
1507.366158,0.002928
1507.848361,0.002032
1508.330564,0.001783
1508.812766,0.001559
1509.294969,0.001290
1509.777172,0.001271
1510.259375,0.001121
1510.741578,0.000887
1511.223781,0.000862
1511.705984,0.001124
1512.188187,0.001497
1512.670389,0.001267
1513.152592,0.000754
1513.634795,0.000706
1514.116998,0.000883
1514.599201,0.001147
1515.081404,0.001423
1515.563607,0.001393
1516.045809,0.001494
1516.528012,0.001975
1517.010215,0.002263
1517.492418,0.002114
1517.974621,0.001634
1518.456824,0.001154
1518.939027,0.001040
1519.421230,0.001328
1519.903432,0.001933
1520.385635,0.002501
1520.867838,0.002804
1521.350041,0.002900
1521.832244,0.002357
1522.314447,0.002066
1522.796650,0.002069
1523.278852,0.001567
1523.761055,0.001206
1524.243258,0.001317
1524.725461,0.001588
1525.207664,0.001989
1525.689867,0.002048
1526.172070,0.001545
1526.654272,0.001374
1527.136475,0.001643
1527.618678,0.001666
1528.100881,0.001511
1528.583084,0.001472
1529.065287,0.001240
1529.547490,0.000990
1530.029693,0.000977
1530.511895,0.001061
1530.994098,0.001181
1531.476301,0.001331
1531.958504,0.001415
1532.440707,0.001547
1532.922910,0.001959
1533.405113,0.002409
1533.887315,0.002365
1534.369518,0.001820
1534.851721,0.001358
1535.333924,0.001274
1535.816127,0.001277
1536.298330,0.001208
1536.780533,0.001263
1537.262736,0.001463
1537.744938,0.001812
1538.227141,0.002468
1538.709344,0.003488
1539.191547,0.004129
1539.673750,0.003720
1540.155953,0.003522
1540.638156,0.003260
1541.120358,0.002688
1541.602561,0.002808
1542.084764,0.003344
1542.566967,0.002829
1543.049170,0.002178
1543.531373,0.002121
1544.013576,0.002139
1544.495779,0.002289
1544.977981,0.002749
1545.460184,0.002687
1545.942387,0.002089
1546.424590,0.001786
1546.906793,0.001732
1547.388996,0.001727
1547.871199,0.001811
1548.353401,0.001991
1548.835604,0.002203
1549.317807,0.002521
1549.800010,0.002898
1550.282213,0.002875
1550.764416,0.002485
1551.246619,0.002261
1551.728822,0.002305
1552.211024,0.002530
1552.693227,0.002822
1553.175430,0.003098
1553.657633,0.003581
1554.139836,0.004350
1554.622039,0.004471
1555.104242,0.003866
1555.586444,0.003709
1556.068647,0.003977
1556.550850,0.004344
1557.033053,0.005095
1557.515256,0.006392
1557.997459,0.007484
1558.479662,0.007939
1558.961864,0.007833
1559.444067,0.007831
1559.926270,0.008250
1560.408473,0.007795
1560.890676,0.006735
1561.372879,0.006355
1561.855082,0.006520
1562.337285,0.006885
1562.819487,0.007228
1563.301690,0.007603
1563.783893,0.008070
1564.266096,0.008709
1564.748299,0.009458
1565.230502,0.009884
1565.712705,0.010047
1566.194907,0.010473
1566.677110,0.011203
1567.159313,0.011953
1567.641516,0.012617
1568.123719,0.013417
1568.605922,0.014587
1569.088125,0.015924
1569.570328,0.017076
1570.052530,0.017603
1570.534733,0.017835
1571.016936,0.018729
1571.499139,0.019984
1571.981342,0.020822
1572.463545,0.021577
1572.945748,0.022894
1573.427950,0.024563
1573.910153,0.026019
1574.392356,0.027227
1574.874559,0.028704
1575.356762,0.030928
1575.838965,0.033636
1576.321168,0.035655
1576.803371,0.036598
1577.285573,0.037960
1577.767776,0.039846
1578.249979,0.041647
1578.732182,0.043117
1579.214385,0.044934
1579.696588,0.047609
1580.178791,0.050417
1580.660993,0.052538
1581.143196,0.054677
1581.625399,0.057844
1582.107602,0.061217
1582.589805,0.063418
1583.072008,0.064959
1583.554211,0.067510
1584.036413,0.071427
1584.518616,0.075202
1585.000819,0.077592
1585.483022,0.079805
1585.965225,0.084081
1586.447428,0.089397
1586.929631,0.092016
1587.411834,0.092352
1587.894036,0.094892
1588.376239,0.100446
1588.858442,0.105021
1589.340645,0.106665
1589.822848,0.109144
1590.305051,0.115853
1590.787254,0.122527
1591.269456,0.122889
1591.751659,0.121458
1592.233862,0.126686
1592.716065,0.133818
1593.198268,0.134070
1593.680471,0.133076
1594.162674,0.139656
1594.644877,0.148798
1595.127079,0.149459
1595.609282,0.144431
1596.091485,0.146114
1596.573688,0.152910
1597.055891,0.151664
1597.538094,0.146966
1598.020297,0.152739
1598.502499,0.163792
1598.984702,0.164333
1599.466905,0.155732
1599.949108,0.153646
1600.431311,0.158084
1600.913514,0.155238
1601.395717,0.150308
1601.877920,0.157900
1602.360122,0.168681
1602.842325,0.162188
1603.324528,0.146705
1603.806731,0.145000
1604.288934,0.150863
1604.771137,0.147689
1605.253340,0.147609
1605.735542,0.159572
1606.217745,0.156685
1606.699948,0.133736
1607.182151,0.124161
1607.664354,0.133102
1608.146557,0.145013
1608.628760,0.147539
1609.110963,0.132550
1609.593165,0.117857
1610.075368,0.114761
1610.557571,0.120135
1611.039774,0.130677
1611.521977,0.122865
1612.004180,0.099708
1612.486383,0.096591
1612.968585,0.112650
1613.450788,0.109139
1613.932991,0.089029
1614.415194,0.091163
1614.897397,0.099082
1615.379600,0.088778
1615.861803,0.081590
1616.344005,0.076326
1616.826208,0.063986
1617.308411,0.062091
1617.790614,0.068247
1618.272817,0.077839
1618.755020,0.090814
1619.237223,0.105866
1619.719426,0.117497
1620.201628,0.124516
1620.683831,0.137477
1621.166034,0.151220
1621.648237,0.154924
1622.130440,0.160439
1622.612643,0.175825
1623.094846,0.185926
1623.577048,0.189077
1624.059251,0.199651
1624.541454,0.202863
1625.023657,0.194381
1625.505860,0.200425
1625.988063,0.214450
1626.470266,0.206412
1626.952469,0.204485
1627.434671,0.221396
1627.916874,0.214600
1628.399077,0.205615
1628.881280,0.220515
1629.363483,0.215542
1629.845686,0.201410
1630.327889,0.212555
1630.810091,0.210048
1631.292294,0.193106
1631.774497,0.200570
1632.256700,0.197878
1632.738903,0.180202
1633.221106,0.185532
1633.703309,0.181843
1634.185512,0.163835
1634.667714,0.167720
1635.149917,0.165079
1635.632120,0.151020
1636.114323,0.154504
1636.596526,0.139803
1637.078729,0.125462
1637.560932,0.126477
1638.043134,0.116129
1638.525337,0.111249
1639.007540,0.113641
1639.489743,0.102602
1639.971946,0.099286
1640.454149,0.096017
1640.936352,0.083028
1641.418555,0.080323
1641.900757,0.074041
1642.382960,0.066019
1642.865163,0.064943
1643.347366,0.057421
1643.829569,0.053447
1644.311772,0.051350
1644.793975,0.045233
1645.276177,0.045044
1645.758380,0.043301
1646.240583,0.037917
1646.722786,0.033408
1647.204989,0.028312
1647.687192,0.026494
1648.169395,0.024413
1648.651597,0.021686
1649.133800,0.019698
1649.616003,0.017234
1650.098206,0.016066
1650.580409,0.014778
1651.062612,0.013592
1651.544815,0.013230
1652.027018,0.012708
1652.509220,0.012856
1652.991423,0.012022
1653.473626,0.010046
1653.955829,0.008872
1654.438032,0.008182
1654.920235,0.007210
1655.402438,0.006150
1655.884640,0.005677
1656.366843,0.005444
1656.849046,0.005220
1657.331249,0.004956
1657.813452,0.004732
1658.295655,0.004591
1658.777858,0.004341
1659.260061,0.004185
1659.742263,0.004114
1660.224466,0.004036
1660.706669,0.004022
1661.188872,0.004110
1661.671075,0.004285
1662.153278,0.004498
1662.635481,0.004755
1663.117683,0.004518
1663.599886,0.003789
1664.082089,0.003421
1664.564292,0.003399
1665.046495,0.003353
1665.528698,0.003340
1666.010901,0.003340
1666.493104,0.003330
1666.975306,0.003432
1667.457509,0.003562
1667.939712,0.003751
1668.421915,0.004063
1668.904118,0.004521
1669.386321,0.004786
1669.868524,0.004253
1670.350726,0.003729
1670.832929,0.003750
1671.315132,0.003965
1671.797335,0.003946
1672.279538,0.003697
1672.761741,0.003541
1673.243944,0.003583
1673.726146,0.003706
1674.208349,0.003910
1674.690552,0.004495
1675.172755,0.005320
1675.654958,0.005186
1676.137161,0.004299
1676.619364,0.003815
1677.101567,0.003731
1677.583769,0.003754
1678.065972,0.003865
1678.548175,0.004068
1679.030378,0.004193
1679.512581,0.004330
1679.994784,0.004598
1680.476987,0.004735
1680.959189,0.004609
1681.441392,0.004476
1681.923595,0.004530
1682.405798,0.004855
1682.888001,0.005536
1683.370204,0.006293
1683.852407,0.006620
1684.334610,0.006783
1684.816812,0.006613
1685.299015,0.005486
1685.781218,0.004516
1686.263421,0.004014
1686.745624,0.003811
1687.227827,0.003763
1687.710030,0.003715
1688.192232,0.003690
1688.674435,0.003533
1689.156638,0.003242
1689.638841,0.003147
1690.121044,0.003081
1690.603247,0.002746
1691.085450,0.002445
1691.567653,0.002279
1692.049855,0.002089
1692.532058,0.001929
1693.014261,0.001730
1693.496464,0.001524
1693.978667,0.001503
1694.460870,0.001632
1694.943073,0.002030
1695.425275,0.002888
1695.907478,0.003491
1696.389681,0.002875
1696.871884,0.002580
1697.354087,0.003237
1697.836290,0.004491
1698.318493,0.005985
1698.800696,0.007732
1699.282898,0.009088
1699.765101,0.008656
1700.247304,0.006011
1700.729507,0.003492
1701.211710,0.001893
1701.693913,0.000989
1702.176116,0.000625
1702.658318,0.000425
1703.140521,0.000428
1703.622724,0.000650
1704.104927,0.001120
1704.587130,0.001628
1705.069333,0.001695
1705.551536,0.001776
1706.033738,0.002279
1706.515941,0.002718
1706.998144,0.002672
1707.480347,0.002567
1707.962550,0.002748
1708.444753,0.003070
1708.926956,0.003322
1709.409159,0.003574
1709.891361,0.003766
1710.373564,0.003553
1710.855767,0.003081
1711.337970,0.002866
1711.820173,0.002999
1712.302376,0.003371
1712.784579,0.003711
1713.266781,0.003947
1713.748984,0.004284
1714.231187,0.004468
1714.713390,0.004517
1715.195593,0.004644
1715.677796,0.004418
1716.159999,0.004114
1716.642202,0.004279
1717.124404,0.004858
1717.606607,0.005129
1718.088810,0.004624
1718.571013,0.004205
1719.053216,0.003676
1719.535419,0.002964
1720.017622,0.002566
1720.499824,0.002375
1720.982027,0.002247
1721.464230,0.002153
1721.946433,0.002040
1722.428636,0.001971
1722.910839,0.002005
1723.393042,0.002081
1723.875245,0.001962
1724.357447,0.001666
1724.839650,0.001544
1725.321853,0.001585
1725.804056,0.001550
1726.286259,0.001461
1726.768462,0.001434
1727.250665,0.001474
1727.732867,0.001539
1728.215070,0.001606
1728.697273,0.001670
1729.179476,0.001825
1729.661679,0.002085
1730.143882,0.002219
1730.626085,0.002114
1731.108288,0.001999
1731.590490,0.002091
1732.072693,0.002368
1732.554896,0.002751
1733.037099,0.003447
1733.519302,0.004245
1734.001505,0.004427
1734.483708,0.004479
1734.965910,0.004058
1735.448113,0.003147
1735.930316,0.002735
1736.412519,0.002735
1736.894722,0.002862
1737.376925,0.003038
1737.859128,0.003156
1738.341330,0.003272
1738.823533,0.003530
1739.305736,0.003988
1739.787939,0.004378
1740.270142,0.004122
1740.752345,0.003681
1741.234548,0.003572
1741.716751,0.003599
1742.198953,0.003685
1742.681156,0.003890
1743.163359,0.004071
1743.645562,0.004049
1744.127765,0.003909
1744.609968,0.003828
1745.092171,0.003767
1745.574373,0.003710
1746.056576,0.003665
1746.538779,0.003655
1747.020982,0.003781
1747.503185,0.003872
1747.985388,0.003896
1748.467591,0.004030
1748.949794,0.004045
1749.431996,0.003882
1749.914199,0.003838
1750.396402,0.004044
1750.878605,0.004506
1751.360808,0.004712
1751.843011,0.004142
1752.325214,0.003624
1752.807416,0.003484
1753.289619,0.003380
1753.771822,0.003267
1754.254025,0.003255
1754.736228,0.003302
1755.218431,0.003392
1755.700634,0.003510
1756.182837,0.003682
1756.665039,0.003949
1757.147242,0.003934
1757.629445,0.003512
1758.111648,0.003236
1758.593851,0.003214
1759.076054,0.003197
1759.558257,0.003123
1760.040459,0.003011
1760.522662,0.002906
1761.004865,0.002970
1761.487068,0.003263
1761.969271,0.003295
1762.451474,0.002686
1762.933677,0.002117
1763.415880,0.001882
1763.898082,0.001752
1764.380285,0.001605
1764.862488,0.001456
1765.344691,0.001338
1765.826894,0.001221
1766.309097,0.001117
1766.791300,0.001093
1767.273502,0.001180
1767.755705,0.001460
1768.237908,0.001619
1768.720111,0.001174
1769.202314,0.000653
1769.684517,0.000502
1770.166720,0.000568
1770.648922,0.000769
1771.131125,0.001127
1771.613328,0.001299
1772.095531,0.001265
1772.577734,0.001385
1773.059937,0.001126
1773.542140,0.000425
1774.024343,0.000008
1774.506545,-0.000112
1774.988748,-0.000072
1775.470951,0.000085
1775.953154,0.000133
1776.435357,-0.000055
1776.917560,-0.000152
1777.399763,-0.000096
1777.881965,-0.000142
1778.364168,-0.000200
1778.846371,-0.000148
1779.328574,-0.000075
1779.810777,0.000086
1780.292980,0.000348
1780.775183,0.000408
1781.257386,0.000192
1781.739588,0.000064
1782.221791,0.000005
1782.703994,-0.000121
1783.186197,-0.000096
1783.668400,0.000111
1784.150603,0.000427
1784.632806,0.000767
1785.115008,0.000720
1785.597211,0.000433
1786.079414,0.000344
1786.561617,0.000251
1787.043820,0.000186
1787.526023,0.000256
1788.008226,0.000400
1788.490429,0.000643
1788.972631,0.000636
1789.454834,0.000458
1789.937037,0.000643
1790.419240,0.000953
1790.901443,0.001034
1791.383646,0.000961
1791.865849,0.000992
1792.348051,0.001423
1792.830254,0.001640
1793.312457,0.000873
1793.794660,0.000351
1794.276863,0.000514
1794.759066,0.000506
1795.241269,0.000258
1795.723471,0.000280
1796.205674,0.000675
1796.687877,0.001201
1797.170080,0.001055
1797.652283,0.000485
1798.134486,0.000591
1798.616689,0.000946
1799.098892,0.000934
1799.581094,0.000855
1800.063297,0.000924
1800.545500,0.001342
1801.027703,0.001518
1801.509906,0.000858
1801.992109,0.000541
1802.474312,0.001033
1802.956514,0.001128
1803.438717,0.000701
1803.920920,0.000681
1804.403123,0.001481
1804.885326,0.002119
1805.367529,0.001390
1805.849732,0.000592
1806.331935,0.001133
1806.814137,0.001720
1807.296340,0.001407
1807.778543,0.001170
1808.260746,0.001990
1808.742949,0.002996
1809.225152,0.002431
1809.707355,0.001191
1810.189557,0.001351
1810.671760,0.002225
1811.153963,0.002092
1811.636166,0.001446
1812.118369,0.002188
1812.600572,0.003794
1813.082775,0.003298
1813.564978,0.001428
1814.047180,0.001240
1814.529383,0.002428
1815.011586,0.002813
1815.493789,0.002010
1815.975992,0.002389
1816.458195,0.004378
1816.940398,0.004265
1817.422600,0.002087
1817.904803,0.001474
1818.387006,0.002642
1818.869209,0.003520
1819.351412,0.002852
1819.833615,0.002955
1820.315818,0.005219
1820.798021,0.005196
1821.280223,0.002566
1821.762426,0.001701
1822.244629,0.002935
1822.726832,0.004245
1823.209035,0.003722
1823.691238,0.003828
1824.173441,0.006662
1824.655643,0.006766
1825.137846,0.003642
1825.620049,0.002465
1826.102252,0.003607
1826.584455,0.005210
1827.066658,0.004862
1827.548861,0.005031
1828.031063,0.007972
1828.513266,0.007231
1828.995469,0.003449
1829.477672,0.002645
1829.959875,0.004554
1830.442078,0.006822
1830.924281,0.006107
1831.406484,0.006351
1831.888686,0.009094
1832.370889,0.006900
1832.853092,0.002682
1833.335295,0.002335
1833.817498,0.004626
1834.299701,0.007318
1834.781904,0.007233
1835.264106,0.008295
1835.746309,0.010323
1836.228512,0.006467
1836.710715,0.002563
1837.192918,0.003090
1837.675121,0.005966
1838.157324,0.008601
1838.639527,0.008616
1839.121729,0.010541
1839.603932,0.010659
1840.086135,0.005039
1840.568338,0.002313
1841.050541,0.003686
1841.532744,0.007097
1842.014947,0.009861
1842.497149,0.010708
1842.979352,0.012953
1843.461555,0.010670
1843.943758,0.005287
1844.425961,0.004488
1844.908164,0.006062
1845.390367,0.009011
1845.872570,0.011134
1846.354772,0.012619
1846.836975,0.012486
1847.319178,0.006677
1847.801381,0.002675
1848.283584,0.003432
1848.765787,0.006194
1849.247990,0.010162
1849.730192,0.012542
1850.212395,0.013502
1850.694598,0.009743
1851.176801,0.003645
1851.659004,0.002422
1852.141207,0.004221
1852.623410,0.007740
1853.105613,0.011713
1853.587815,0.013993
1854.070018,0.011946
1854.552221,0.005439
1855.034424,0.002028
1855.516627,0.002984
1855.998830,0.005509
1856.481033,0.009582
1856.963235,0.013187
1857.445438,0.012774
1857.927641,0.007052
1858.409844,0.002232
1858.892047,0.002099
1859.374250,0.003739
1859.856453,0.006922
1860.338655,0.011370
1860.820858,0.012716
1861.303061,0.008106
1861.785264,0.002663
1862.267467,0.001497
1862.749670,0.002536
1863.231873,0.004499
1863.714076,0.008403
1864.196278,0.011054
1864.678481,0.007983
1865.160684,0.002750
1865.642887,0.001043
1866.125090,0.001744
1866.607293,0.002828
1867.089496,0.005194
1867.571698,0.007838
1868.053901,0.006612
1868.536104,0.002576
1869.018307,0.001083
1869.500510,0.001426
1869.982713,0.001266
1870.464916,0.001753
1870.947119,0.003289
1871.429321,0.003313
1871.911524,0.001463
1872.393727,0.000559
1872.875930,0.000775
1873.358133,0.001208
1873.840336,0.002103
1874.322539,0.003642
1874.804741,0.005895
1875.286944,0.009494
1875.769147,0.012653
1876.251350,0.009806
1876.733553,0.003351
1877.215756,0.000528
1877.697959,0.000239
1878.180162,-0.000029
1878.662364,-0.000058
1879.144567,0.000037
1879.626770,0.000388
1880.108973,0.000877
1880.591176,0.002161
1881.073379,0.003560
1881.555582,0.002769
1882.037784,0.000850
1882.519987,0.000636
1883.002190,0.001598
1883.484393,0.002868
1883.966596,0.006242
1884.448799,0.008888
1884.931002,0.005920
1885.413204,0.001754
1885.895407,0.001672
1886.377610,0.003015
1886.859813,0.005321
1887.342016,0.010805
1887.824219,0.012875
1888.306422,0.007026
1888.788625,0.002332
1889.270827,0.003344
1889.753030,0.005208
1890.235233,0.009225
1890.717436,0.015587
1891.199639,0.014464
1891.681842,0.006131
1892.164045,0.002765
1892.646247,0.004331
1893.128450,0.006595
1893.610653,0.013323
1894.092856,0.018954
1894.575059,0.013281
1895.057262,0.004834
1895.539465,0.003845
1896.021668,0.005824
1896.503870,0.010263
1896.986073,0.018460
1897.468276,0.018854
1897.950479,0.009404
1898.432682,0.003975
1898.914885,0.005038
1899.397088,0.008136
1899.879290,0.015502
1900.361493,0.020822
1900.843696,0.014607
1901.325899,0.006024
1901.808102,0.004584
1902.290305,0.006870
1902.772508,0.012486
1903.254711,0.019668
1903.736913,0.017930
1904.219116,0.009065
1904.701319,0.004815
1905.183522,0.005919
1905.665725,0.010371
1906.147928,0.017633
1906.630131,0.018961
1907.112333,0.011655
1907.594536,0.005818
1908.076739,0.005376
1908.558942,0.008793
1909.041145,0.015449
1909.523348,0.018276
1910.005551,0.012881
1910.487754,0.006765
1910.969956,0.005047
1911.452159,0.007558
1911.934362,0.013589
1912.416565,0.016650
1912.898768,0.012582
1913.380971,0.007188
1913.863174,0.004868
1914.345376,0.006536
1914.827579,0.011897
1915.309782,0.014748
1915.791985,0.011572
1916.274188,0.007140
1916.756391,0.004721
1917.238594,0.005897
1917.720796,0.010584
1918.202999,0.012745
1918.685202,0.009803
1919.167405,0.006525
1919.649608,0.004444
1920.131811,0.005435
1920.614014,0.009592
1921.096217,0.010850
1921.578419,0.008303
1922.060622,0.005974
1922.542825,0.004367
1923.025028,0.005607
1923.507231,0.009051
1923.989434,0.008874
1924.471637,0.006490
1924.953839,0.004870
1925.436042,0.003579
1925.918245,0.005101
1926.400448,0.007626
1926.882651,0.006647
1927.364854,0.004892
1927.847057,0.003866
1928.329260,0.003186
1928.811462,0.005001
1929.293665,0.006293
1929.775868,0.004860
1930.258071,0.003885
1930.740274,0.003083
1931.222477,0.003004
1931.704680,0.004663
1932.186882,0.004571
1932.669085,0.003324
1933.151288,0.002907
1933.633491,0.002252
1934.115694,0.002866
1934.597897,0.003864
1935.080100,0.003020
1935.562303,0.002397
1936.044505,0.002086
1936.526708,0.001870
1937.008911,0.002713
1937.491114,0.002626
1937.973317,0.001831
1938.455520,0.001671
1938.937723,0.001435
1939.419925,0.001840
1939.902128,0.002233
1940.384331,0.001686
1940.866534,0.001483
1941.348737,0.001393
1941.830940,0.001473
1942.313143,0.001947
1942.795346,0.001662
1943.277548,0.001225
1943.759751,0.001042
1944.241954,0.000874
1944.724157,0.001085
1945.206360,0.001006
1945.688563,0.000771
1946.170766,0.000799
1946.652968,0.000720
1947.135171,0.000790
1947.617374,0.000718
1948.099577,0.000464
1948.581780,0.000492
1949.063983,0.000488
1949.546186,0.000519
1950.028388,0.000537
1950.510591,0.000395
1950.992794,0.000400
1951.474997,0.000381
1951.957200,0.000327
1952.439403,0.000308
1952.921606,0.000210
1953.403809,0.000179
1953.886011,0.000185
1954.368214,0.000228
1954.850417,0.000250
1955.332620,0.000153
1955.814823,0.000148
1956.297026,0.000231
1956.779229,0.000245
1957.261431,0.000138
1957.743634,0.000034
1958.225837,0.000047
1958.708040,0.000084
1959.190243,0.000137
1959.672446,0.000127
1960.154649,0.000070
1960.636852,0.000090
1961.119054,0.000073
1961.601257,0.000046
1962.083460,0.000085
1962.565663,0.000084
1963.047866,0.000076
1963.530069,0.000085
1964.012272,0.000060
1964.494474,0.000033
1964.976677,-0.000003
1965.458880,-0.000002
1965.941083,0.000079
1966.423286,0.000118
1966.905489,0.000105
1967.387692,0.000153
1967.869895,0.000199
1968.352097,0.000133
1968.834300,0.000028
1969.316503,-0.000005
1969.798706,0.000019
1970.280909,0.000032
1970.763112,-0.000016
1971.245315,-0.000067
1971.727517,-0.000038
1972.209720,-0.000032
1972.691923,-0.000066
1973.174126,-0.000004
1973.656329,0.000035
1974.138532,-0.000045
1974.620735,-0.000070
1975.102938,-0.000040
1975.585140,-0.000057
1976.067343,-0.000040
1976.549546,0.000004
1977.031749,0.000025
1977.513952,0.000081
1977.996155,0.000095
1978.478358,0.000034
1978.960560,0.000016
1979.442763,0.000020
1979.924966,0.000034
1980.407169,0.000050
1980.889372,-0.000011
1981.371575,-0.000050
1981.853778,-0.000050
1982.335980,-0.000075
1982.818183,-0.000060
1983.300386,-0.000037
1983.782589,-0.000034
1984.264792,-0.000025
1984.746995,-0.000034
1985.229198,-0.000030
1985.711401,-0.000025
1986.193603,-0.000009
1986.675806,0.000046
1987.158009,0.000043
1987.640212,0.000022
1988.122415,0.000085
1988.604618,0.000122
1989.086821,0.000090
1989.569023,0.000086
1990.051226,0.000094
1990.533429,0.000076
1991.015632,0.000086
1991.497835,0.000159
1991.980038,0.000242
1992.462241,0.000200
1992.944444,0.000038
1993.426646,-0.000016
1993.908849,0.000018
1994.391052,-0.000040
1994.873255,-0.000108
1995.355458,-0.000115
1995.837661,-0.000075
1996.319864,-0.000019
1996.802066,-0.000045
1997.284269,-0.000067
1997.766472,0.000001
1998.248675,0.000040
1998.730878,0.000008
1999.213081,-0.000014
1999.695284,-0.000003
2000.177487,0.000005
2000.659689,0.000018
2001.141892,0.000032
2001.624095,-0.000009
2002.106298,-0.000066
2002.588501,-0.000044
2003.070704,0.000019
2003.552907,0.000018
2004.035109,-0.000018
2004.517312,-0.000002
2004.999515,0.000008
2005.481718,-0.000045
2005.963921,-0.000029
2006.446124,0.000076
2006.928327,0.000034
2007.410529,-0.000114
2007.892732,-0.000089
2008.374935,0.000001
2008.857138,-0.000002
2009.339341,0.000007
2009.821544,0.000035
2010.303747,0.000064
2010.785950,0.000061
2011.268152,-0.000008
2011.750355,-0.000031
2012.232558,-0.000008
2012.714761,0.000007
2013.196964,0.000037
2013.679167,0.000037
2014.161370,0.000026
2014.643572,0.000000
2015.125775,-0.000059
2015.607978,0.000011
2016.090181,0.000152
2016.572384,0.000144
2017.054587,0.000071
2017.536790,0.000047
2018.018993,0.000039
2018.501195,0.000038
2018.983398,0.000076
2019.465601,0.000092
2019.947804,0.000032
2020.430007,0.000020
2020.912210,-0.000021
2021.394413,-0.000116
2021.876615,-0.000042
2022.358818,0.000053
2022.841021,0.000019
2023.323224,0.000012
2023.805427,0.000066
2024.287630,0.000104
2024.769833,0.000051
2025.252036,-0.000016
2025.734238,-0.000015
2026.216441,-0.000022
2026.698644,-0.000046
2027.180847,-0.000036
2027.663050,0.000018
2028.145253,0.000049
2028.627456,0.000027
2029.109658,0.000027
2029.591861,0.000027
2030.074064,0.000041
2030.556267,0.000059
2031.038470,0.000004
2031.520673,0.000009
2032.002876,0.000055
2032.485079,-0.000012
2032.967281,-0.000067
2033.449484,-0.000045
2033.931687,-0.000008
2034.413890,0.000002
2034.896093,-0.000017
2035.378296,0.000015
2035.860499,0.000003
2036.342701,-0.000120
2036.824904,-0.000151
2037.307107,-0.000028
2037.789310,0.000019
2038.271513,-0.000026
2038.753716,0.000042
2039.235919,0.000105
2039.718121,0.000017
2040.200324,-0.000018
2040.682527,0.000055
2041.164730,0.000073
2041.646933,0.000036
2042.129136,0.000027
2042.611339,-0.000002
2043.093542,-0.000024
2043.575744,0.000046
2044.057947,0.000096
2044.540150,0.000052
2045.022353,0.000009
2045.504556,0.000019
2045.986759,0.000041
2046.468962,0.000044
2046.951164,0.000027
2047.433367,-0.000032
2047.915570,-0.000045
2048.397773,-0.000004
2048.879976,-0.000025
2049.362179,-0.000034
2049.844382,0.000015
2050.326585,0.000056
2050.808787,0.000061
2051.290990,-0.000002
2051.773193,-0.000046
2052.255396,-0.000010
2052.737599,-0.000002
2053.219802,-0.000064
2053.702005,-0.000126
2054.184207,-0.000103
2054.666410,-0.000007
2055.148613,0.000057
2055.630816,0.000039
2056.113019,0.000018
2056.595222,0.000050
2057.077425,0.000080
2057.559628,0.000055
2058.041830,0.000015
2058.524033,0.000011
2059.006236,0.000002
2059.488439,-0.000012
2059.970642,0.000045
2060.452845,0.000063
2060.935048,-0.000040
2061.417250,-0.000109
2061.899453,-0.000097
2062.381656,-0.000065
2062.863859,-0.000001
2063.346062,0.000054
2063.828265,0.000006
2064.310468,-0.000077
2064.792671,-0.000059
2065.274873,-0.000024
2065.757076,-0.000012
2066.239279,0.000037
2066.721482,0.000028
2067.203685,-0.000020
2067.685888,-0.000030
2068.168091,-0.000050
2068.650293,-0.000043
2069.132496,-0.000013
2069.614699,-0.000007
2070.096902,-0.000012
2070.579105,0.000008
2071.061308,0.000045
2071.543511,0.000047
2072.025713,0.000028
2072.507916,0.000021
2072.990119,-0.000002
2073.472322,-0.000039
2073.954525,-0.000018
2074.436728,0.000044
2074.918931,0.000047
2075.401134,0.000004
2075.883336,-0.000028
2076.365539,-0.000028
2076.847742,-0.000036
2077.329945,-0.000071
2077.812148,-0.000042
2078.294351,-0.000006
2078.776554,-0.000031
2079.258756,-0.000011
2079.740959,0.000051
2080.223162,0.000076
2080.705365,0.000051
2081.187568,-0.000004
2081.669771,-0.000063
2082.151974,-0.000111
2082.634177,-0.000096
2083.116379,0.000006
2083.598582,0.000067
2084.080785,0.000015
2084.562988,-0.000015
2085.045191,0.000023
2085.527394,0.000025
2086.009597,0.000015
2086.491799,0.000043
2086.974002,0.000030
2087.456205,0.000009
2087.938408,0.000003
2088.420611,-0.000058
2088.902814,-0.000064
2089.385017,0.000025
2089.867220,0.000081
2090.349422,0.000089
2090.831625,0.000087
2091.313828,0.000091
2091.796031,0.000073
2092.278234,0.000040
2092.760437,0.000018
2093.242640,0.000009
2093.724842,0.000037
2094.207045,0.000052
2094.689248,0.000100
2095.171451,0.000156
2095.653654,0.000073
2096.135857,-0.000022
2096.618060,0.000006
2097.100262,0.000038
2097.582465,-0.000010
2098.064668,-0.000061
2098.546871,-0.000033
2099.029074,0.000051
2099.511277,0.000076
2099.993480,-0.000004
2100.475683,-0.000046
2100.957885,0.000004
2101.440088,0.000059
2101.922291,0.000093
2102.404494,0.000090
2102.886697,0.000081
2103.368900,0.000067
2103.851103,0.000045
2104.333305,0.000053
2104.815508,0.000055
2105.297711,0.000056
2105.779914,0.000083
2106.262117,0.000079
2106.744320,0.000019
2107.226523,-0.000000
2107.708726,0.000062
2108.190928,0.000065
2108.673131,-0.000012
2109.155334,-0.000045
2109.637537,-0.000019
2110.119740,-0.000005
2110.601943,-0.000035
2111.084146,-0.000037
2111.566348,0.000027
2112.048551,0.000089
2112.530754,0.000086
2113.012957,0.000053
2113.495160,0.000047
2113.977363,0.000011
2114.459566,-0.000014
2114.941769,0.000062
2115.423971,0.000141
2115.906174,0.000142
2116.388377,0.000086
2116.870580,0.000030
2117.352783,-0.000015
2117.834986,-0.000058
2118.317189,-0.000016
2118.799391,0.000060
2119.281594,0.000057
2119.763797,0.000060
2120.246000,0.000043
2120.728203,-0.000029
2121.210406,-0.000024
2121.692609,-0.000008
2122.174812,-0.000009
2122.657014,0.000086
2123.139217,0.000176
2123.621420,0.000186
2124.103623,0.000143
2124.585826,0.000106
2125.068029,0.000120
2125.550232,0.000081
2126.032434,0.000016
2126.514637,-0.000022
2126.996840,-0.000050
2127.479043,0.000025
2127.961246,0.000107
2128.443449,0.000094
2128.925652,0.000085
2129.407854,0.000102
2129.890057,0.000084
2130.372260,0.000008
2130.854463,0.000003
2131.336666,0.000099
2131.818869,0.000141
2132.301072,0.000128
2132.783275,0.000108
2133.265477,0.000094
2133.747680,0.000107
2134.229883,0.000104
2134.712086,0.000090
2135.194289,0.000082
2135.676492,0.000073
2136.158695,0.000086
2136.640897,0.000084
2137.123100,0.000016
2137.605303,-0.000025
2138.087506,0.000027
2138.569709,0.000061
2139.051912,0.000060
2139.534115,0.000112
2140.016318,0.000146
2140.498520,0.000120
2140.980723,0.000112
2141.462926,0.000105
2141.945129,0.000061
2142.427332,0.000029
2142.909535,0.000041
2143.391738,0.000090
2143.873940,0.000106
2144.356143,0.000036
2144.838346,-0.000052
2145.320549,-0.000071
2145.802752,-0.000025
2146.284955,0.000038
2146.767158,0.000075
2147.249361,0.000085
2147.731563,0.000097
2148.213766,0.000082
2148.695969,0.000027
2149.178172,-0.000006
2149.660375,0.000010
2150.142578,0.000042
2150.624781,0.000025
2151.106983,-0.000028
2151.589186,-0.000016
2152.071389,0.000048
2152.553592,0.000042
2153.035795,0.000025
2153.517998,0.000109
2154.000201,0.000166
2154.482404,0.000157
2154.964606,0.000122
2155.446809,0.000011
2155.929012,-0.000025
2156.411215,0.000058
2156.893418,0.000104
2157.375621,0.000094
2157.857824,0.000071
2158.340026,0.000071
2158.822229,0.000065
2159.304432,0.000046
2159.786635,0.000039
2160.268838,0.000065
2160.751041,0.000128
2161.233244,0.000114
2161.715446,0.000047
2162.197649,0.000017
2162.679852,0.000017
2163.162055,0.000053
2163.644258,0.000055
2164.126461,0.000038
2164.608664,0.000042
2165.090867,0.000053
2165.573069,0.000106
2166.055272,0.000099
2166.537475,0.000019
2167.019678,-0.000036
2167.501881,-0.000102
2167.984084,-0.000121
2168.466287,-0.000036
2168.948489,0.000048
2169.430692,0.000050
2169.912895,-0.000022
2170.395098,-0.000054
2170.877301,-0.000014
2171.359504,-0.000002
2171.841707,0.000009
2172.323910,0.000080
2172.806112,0.000115
2173.288315,0.000099
2173.770518,0.000145
2174.252721,0.000187
2174.734924,0.000106
2175.217127,0.000025
2175.699330,0.000022
2176.181532,0.000064
2176.663735,0.000115
2177.145938,0.000066
2177.628141,0.000005
2178.110344,0.000053
2178.592547,0.000095
2179.074750,0.000108
2179.556953,0.000097
2180.039155,0.000063
2180.521358,0.000054
2181.003561,-0.000010
2181.485764,-0.000060
2181.967967,0.000006
2182.450170,0.000066
2182.932373,0.000129
2183.414575,0.000181
2183.896778,0.000154
2184.378981,0.000127
2184.861184,0.000074
2185.343387,0.000019
2185.825590,0.000047
2186.307793,0.000095
2186.789995,0.000136
2187.272198,0.000106
2187.754401,0.000049
2188.236604,0.000043
2188.718807,0.000020
2189.201010,0.000103
2189.683213,0.000279
2190.165416,0.000297
2190.647618,0.000237
2191.129821,0.000247
2191.612024,0.000254
2192.094227,0.000239
2192.576430,0.000244
2193.058633,0.000239
2193.540836,0.000252
2194.023038,0.000302
2194.505241,0.000293
2194.987444,0.000261
2195.469647,0.000296
2195.951850,0.000340
2196.434053,0.000328
2196.916256,0.000283
2197.398459,0.000261
2197.880661,0.000259
2198.362864,0.000268
2198.845067,0.000284
2199.327270,0.000287
2199.809473,0.000299
2200.291676,0.000297
2200.773879,0.000264
2201.256081,0.000284
2201.738284,0.000365
2202.220487,0.000378
2202.702690,0.000320
2203.184893,0.000297
2203.667096,0.000262
2204.149299,0.000195
2204.631502,0.000193
2205.113704,0.000234
2205.595907,0.000301
2206.078110,0.000330
2206.560313,0.000276
2207.042516,0.000296
2207.524719,0.000356
2208.006922,0.000333
2208.489124,0.000303
2208.971327,0.000308
2209.453530,0.000369
2209.935733,0.000435
2210.417936,0.000408
2210.900139,0.000320
2211.382342,0.000262
2211.864545,0.000301
2212.346747,0.000334
2212.828950,0.000297
2213.311153,0.000342
2213.793356,0.000417
2214.275559,0.000362
2214.757762,0.000301
2215.239965,0.000322
2215.722167,0.000336
2216.204370,0.000350
2216.686573,0.000364
2217.168776,0.000354
2217.650979,0.000344
2218.133182,0.000302
2218.615385,0.000277
2219.097587,0.000294
2219.579790,0.000281
2220.061993,0.000247
2220.544196,0.000204
2221.026399,0.000186
2221.508602,0.000197
2221.990805,0.000180
2222.473008,0.000190
2222.955210,0.000195
2223.437413,0.000126
2223.919616,0.000111
2224.401819,0.000129
2224.884022,0.000062
2225.366225,0.000071
2225.848428,0.000156
2226.330630,0.000138
2226.812833,0.000165
2227.295036,0.000277
2227.777239,0.000294
2228.259442,0.000275
2228.741645,0.000324
2229.223848,0.000407
2229.706051,0.000432
2230.188253,0.000404
2230.670456,0.000420
2231.152659,0.000408
2231.634862,0.000330
2232.117065,0.000316
2232.599268,0.000376
2233.081471,0.000419
2233.563673,0.000397
2234.045876,0.000403
2234.528079,0.000454
2235.010282,0.000439
2235.492485,0.000423
2235.974688,0.000443
2236.456891,0.000482
2236.939094,0.000537
2237.421296,0.000529
2237.903499,0.000523
2238.385702,0.000518
2238.867905,0.000428
2239.350108,0.000395
2239.832311,0.000447
2240.314514,0.000454
2240.796716,0.000430
2241.278919,0.000457
2241.761122,0.000443
2242.243325,0.000353
2242.725528,0.000354
2243.207731,0.000359
2243.689934,0.000298
2244.172137,0.000332
2244.654339,0.000360
2245.136542,0.000335
2245.618745,0.000316
2246.100948,0.000229
2246.583151,0.000179
2247.065354,0.000215
2247.547557,0.000202
2248.029759,0.000200
2248.511962,0.000250
2248.994165,0.000233
2249.476368,0.000175
2249.958571,0.000146
2250.440774,0.000137
2250.922977,0.000175
2251.405179,0.000191
2251.887382,0.000116
2252.369585,0.000109
2252.851788,0.000168
2253.333991,0.000135
2253.816194,0.000065
2254.298397,0.000075
2254.780600,0.000158
2255.262802,0.000172
2255.745005,0.000065
2256.227208,-0.000025
2256.709411,-0.000020
2257.191614,0.000029
2257.673817,0.000051
2258.156020,0.000052
2258.638222,0.000057
2259.120425,0.000066
2259.602628,0.000094
2260.084831,0.000074
2260.567034,-0.000025
2261.049237,-0.000062
2261.531440,0.000005
2262.013643,0.000053
2262.495845,0.000036
2262.978048,0.000037
2263.460251,0.000098
2263.942454,0.000137
2264.424657,0.000095
2264.906860,0.000014
2265.389063,-0.000031
2265.871265,0.000032
2266.353468,0.000095
2266.835671,0.000031
2267.317874,-0.000055
2267.800077,-0.000048
2268.282280,0.000006
2268.764483,0.000013
2269.246686,0.000063
2269.728888,0.000123
2270.211091,0.000007
2270.693294,-0.000092
2271.175497,-0.000061
2271.657700,-0.000046
2272.139903,-0.000062
2272.622106,-0.000050
2273.104308,0.000059
2273.586511,0.000120
2274.068714,0.000054
2274.550917,0.000044
2275.033120,0.000074
2275.515323,0.000019
2275.997526,-0.000047
2276.479729,-0.000025
2276.961931,0.000052
2277.444134,0.000115
2277.926337,0.000097
2278.408540,0.000059
2278.890743,0.000076
2279.372946,0.000063
2279.855149,0.000055
2280.337351,0.000076
2280.819554,0.000066
2281.301757,0.000076
2281.783960,0.000081
2282.266163,0.000083
2282.748366,0.000088
2283.230569,0.000082
2283.712771,0.000117
2284.194974,0.000088
2284.677177,0.000038
2285.159380,0.000089
2285.641583,0.000079
2286.123786,0.000040
2286.605989,0.000071
2287.088192,0.000040
2287.570394,-0.000015
2288.052597,-0.000004
2288.534800,0.000078
2289.017003,0.000184
2289.499206,0.000170
2289.981409,0.000110
2290.463612,0.000114
2290.945814,0.000093
2291.428017,0.000042
2291.910220,-0.000008
2292.392423,-0.000059
2292.874626,-0.000052
2293.356829,-0.000017
2293.839032,0.000009
2294.321235,0.000068
2294.803437,0.000091
2295.285640,0.000098
2295.767843,0.000154
2296.250046,0.000122
2296.732249,0.000026
2297.214452,-0.000027
2297.696655,-0.000073
2298.178857,-0.000074
2298.661060,-0.000008
2299.143263,0.000021
2299.625466,-0.000044
2300.107669,-0.000059
2300.589872,0.000020
2301.072075,0.000033
2301.554278,-0.000042
2302.036480,-0.000117
2302.518683,-0.000102
2303.000886,-0.000011
2303.483089,0.000029
2303.965292,0.000003
2304.447495,-0.000044
2304.929698,-0.000066
2305.411900,-0.000035
2305.894103,-0.000014
2306.376306,-0.000048
2306.858509,-0.000059
2307.340712,-0.000052
2307.822915,-0.000033
2308.305118,0.000007
2308.787320,-0.000018
2309.269523,-0.000067
2309.751726,-0.000032
2310.233929,0.000026
2310.716132,0.000048
2311.198335,0.000075
2311.680538,0.000148
2312.162741,0.000169
2312.644943,0.000057
2313.127146,-0.000084
2313.609349,-0.000085
2314.091552,0.000103
2314.573755,0.000220
2315.055958,0.000122
2315.538161,0.000098
2316.020363,0.000233
2316.502566,0.000268
2316.984769,0.000171
2317.466972,0.000103
2317.949175,0.000201
2318.431378,0.000284
2318.913581,0.000166
2319.395784,0.000091
2319.877986,0.000220
2320.360189,0.000264
2320.842392,0.000124
2321.324595,0.000002
2321.806798,0.000075
2322.289001,0.000216
2322.771204,0.000209
2323.253406,0.000041
2323.735609,0.000083
2324.217812,0.000335
2324.700015,0.000333
2325.182218,0.000123
2325.664421,0.000196
2326.146624,0.000426
2326.628827,0.000366
2327.111029,0.000132
2327.593232,0.000232
2328.075435,0.000386
2328.557638,0.000261
2329.039841,0.000120
2329.522044,0.000204
2330.004247,0.000322
2330.486449,0.000261
2330.968652,0.000190
2331.450855,0.000384
2331.933058,0.000424
2332.415261,0.000122
2332.897464,0.000067
2333.379667,0.000368
2333.861870,0.000335
2334.344072,0.000038
2334.826275,0.000178
2335.308478,0.000403
2335.790681,0.000291
2336.272884,0.000139
2336.755087,0.000233
2337.237290,0.000335
2337.719492,0.000151
2338.201695,0.000040
2338.683898,0.000336
2339.166101,0.000381
2339.648304,0.000140
2340.130507,0.000335
2340.612710,0.000560
2341.094912,0.000384
2341.577115,0.000329
2342.059318,0.000550
2342.541521,0.000528
2343.023724,0.000336
2343.505927,0.000444
2343.988130,0.000569
2344.470333,0.000375
2344.952535,0.000372
2345.434738,0.000693
2345.916941,0.000745
2346.399144,0.000683
2346.881347,0.000880
2347.363550,0.001011
2347.845753,0.001050
2348.327955,0.001225
2348.810158,0.001330
2349.292361,0.001244
2349.774564,0.001172
2350.256767,0.001201
2350.738970,0.001232
2351.221173,0.001080
2351.703376,0.000835
2352.185578,0.000849
2352.667781,0.000816
2353.149984,0.000565
2353.632187,0.000694
2354.114390,0.000861
2354.596593,0.000614
2355.078796,0.000670
2355.560998,0.000859
2356.043201,0.000595
2356.525404,0.000619
2357.007607,0.000718
2357.489810,0.000365
2357.972013,0.000285
2358.454216,0.000321
2358.936419,0.000072
2359.418621,0.000109
2359.900824,0.000185
2360.383027,0.000101
2360.865230,0.000173
2361.347433,0.000090
2361.829636,-0.000063
2362.311839,-0.000032
2362.794041,-0.000217
2363.276244,-0.000258
2363.758447,-0.000047
2364.240650,-0.000153
2364.722853,-0.000128
2365.205056,-0.000056
2365.687259,-0.000264
2366.169462,-0.000235
2366.651664,-0.000227
2367.133867,-0.000289
2367.616070,-0.000203
2368.098273,-0.000229
2368.580476,-0.000254
2369.062679,-0.000358
2369.544882,-0.000387
2370.027084,-0.000182
2370.509287,-0.000184
2370.991490,-0.000296
2371.473693,-0.000318
2371.955896,-0.000286
2372.438099,-0.000258
2372.920302,-0.000299
2373.402504,-0.000265
2373.884707,-0.000241
2374.366910,-0.000297
2374.849113,-0.000292
2375.331316,-0.000269
2375.813519,-0.000242
2376.295722,-0.000187
2376.777925,-0.000192
2377.260127,-0.000209
2377.742330,-0.000125
2378.224533,-0.000049
2378.706736,-0.000088
2379.188939,-0.000072
2379.671142,-0.000049
2380.153345,-0.000079
2380.635547,-0.000068
2381.117750,-0.000026
2381.599953,0.000063
2382.082156,0.000128
2382.564359,0.000071
2383.046562,0.000012
2383.528765,0.000040
2384.010968,0.000053
2384.493170,0.000022
2384.975373,0.000020
2385.457576,0.000029
2385.939779,0.000059
2386.421982,0.000124
2386.904185,0.000144
2387.386388,0.000121
2387.868590,0.000091
2388.350793,0.000060
2388.832996,0.000101
2389.315199,0.000151
2389.797402,0.000077
2390.279605,0.000022
2390.761808,0.000062
2391.244011,0.000083
2391.726213,0.000103
2392.208416,0.000096
2392.690619,0.000040
2393.172822,0.000037
2393.655025,0.000069
2394.137228,0.000058
2394.619431,0.000038
2395.101633,0.000056
2395.583836,0.000063
2396.066039,0.000077
2396.548242,0.000133
2397.030445,0.000134
2397.512648,0.000088
2397.994851,0.000040
2398.477053,0.000019
2398.959256,0.000066
2399.441459,0.000069
2399.923662,0.000015
2400.405865,0.000026
2400.888068,0.000085
2401.370271,0.000116
2401.852474,0.000106
2402.334676,0.000069
2402.816879,0.000001
2403.299082,-0.000058
2403.781285,-0.000004
2404.263488,0.000108
2404.745691,0.000072
2405.227894,-0.000009
2405.710096,0.000044
2406.192299,0.000016
2406.674502,-0.000075
2407.156705,0.000014
2407.638908,0.000092
2408.121111,0.000078
2408.603314,0.000119
2409.085517,0.000113
2409.567719,0.000076
2410.049922,0.000089
2410.532125,0.000077
2411.014328,0.000068
2411.496531,0.000040
2411.978734,-0.000034
2412.460937,-0.000053
2412.943139,0.000012
2413.425342,0.000056
2413.907545,0.000002
2414.389748,0.000015
2414.871951,0.000146
2415.354154,0.000162
2415.836357,0.000069
2416.318560,0.000006
2416.800762,-0.000004
2417.282965,0.000008
2417.765168,-0.000023
2418.247371,-0.000010
2418.729574,0.000083
2419.211777,0.000064
2419.693980,-0.000038
2420.176182,-0.000032
2420.658385,0.000020
2421.140588,0.000039
2421.622791,0.000066
2422.104994,0.000066
2422.587197,0.000073
2423.069400,0.000128
2423.551603,0.000143
2424.033805,0.000121
2424.516008,0.000078
2424.998211,0.000003
2425.480414,-0.000043
2425.962617,-0.000050
2426.444820,0.000003
2426.927023,0.000059
2427.409225,0.000028
2427.891428,0.000035
2428.373631,0.000084
2428.855834,0.000040
2429.338037,-0.000007
2429.820240,0.000048
2430.302443,0.000096
2430.784645,0.000101
2431.266848,0.000159
2431.749051,0.000164
2432.231254,0.000082
2432.713457,0.000071
2433.195660,0.000073
2433.677863,0.000005
2434.160066,-0.000007
2434.642268,0.000106
2435.124471,0.000146
2435.606674,-0.000010
2436.088877,-0.000126
2436.571080,-0.000039
2437.053283,0.000076
2437.535486,0.000050
2438.017688,-0.000028
2438.499891,-0.000055
2438.982094,-0.000037
2439.464297,0.000028
2439.946500,0.000097
2440.428703,0.000166
2440.910906,0.000177
2441.393109,0.000038
2441.875311,-0.000060
2442.357514,0.000026
2442.839717,0.000151
2443.321920,0.000156
2443.804123,0.000087
2444.286326,0.000111
2444.768529,0.000153
2445.250731,0.000084
2445.732934,-0.000006
2446.215137,0.000043
2446.697340,0.000202
2447.179543,0.000222
2447.661746,0.000119
2448.143949,0.000081
2448.626152,0.000035
2449.108354,0.000012
2449.590557,0.000063
2450.072760,0.000033
2450.554963,0.000013
2451.037166,0.000057
2451.519369,0.000032
2452.001572,0.000064
2452.483774,0.000136
2452.965977,0.000103
2453.448180,0.000089
2453.930383,0.000120
2454.412586,0.000124
2454.894789,0.000105
2455.376992,0.000064
2455.859195,0.000048
2456.341397,0.000070
2456.823600,0.000092
2457.305803,0.000120
2457.788006,0.000149
2458.270209,0.000087
2458.752412,-0.000030
2459.234615,-0.000033
2459.716817,0.000050
2460.199020,0.000097
2460.681223,0.000070
2461.163426,0.000032
2461.645629,0.000065
2462.127832,0.000105
2462.610035,0.000148
2463.092237,0.000212
2463.574440,0.000168
2464.056643,0.000059
2464.538846,0.000014
2465.021049,-0.000005
2465.503252,-0.000015
2465.985455,0.000049
2466.467658,0.000081
2466.949860,-0.000008
2467.432063,-0.000038
2467.914266,-0.000008
2468.396469,-0.000040
2468.878672,-0.000019
2469.360875,0.000053
2469.843078,0.000074
2470.325280,0.000043
2470.807483,0.000008
2471.289686,0.000020
2471.771889,0.000020
2472.254092,-0.000009
2472.736295,0.000007
2473.218498,0.000029
2473.700701,0.000008
2474.182903,0.000039
2474.665106,0.000138
2475.147309,0.000150
2475.629512,0.000094
2476.111715,0.000040
2476.593918,0.000026
2477.076121,0.000124
2477.558323,0.000173
2478.040526,0.000090
2478.522729,0.000036
2479.004932,0.000028
2479.487135,0.000022
2479.969338,0.000072
2480.451541,0.000151
2480.933744,0.000106
2481.415946,0.000017
2481.898149,0.000059
2482.380352,0.000104
2482.862555,0.000084
2483.344758,0.000084
2483.826961,0.000079
2484.309164,0.000063
2484.791366,0.000097
2485.273569,0.000129
2485.755772,0.000093
2486.237975,0.000071
2486.720178,0.000056
2487.202381,0.000006
2487.684584,0.000044
2488.166786,0.000143
2488.648989,0.000161
2489.131192,0.000101
2489.613395,0.000029
2490.095598,0.000028
2490.577801,0.000118
2491.060004,0.000161
2491.542207,0.000133
2492.024409,0.000168
2492.506612,0.000246
2492.988815,0.000272
2493.471018,0.000245
2493.953221,0.000177
2494.435424,0.000081
2494.917627,0.000007
2495.399829,-0.000004
2495.882032,-0.000006
2496.364235,-0.000001
2496.846438,0.000058
2497.328641,0.000074
2497.810844,0.000034
2498.293047,0.000034
2498.775250,0.000064
2499.257452,0.000080
2499.739655,0.000049
2500.221858,0.000049
2500.704061,0.000152
2501.186264,0.000203
2501.668467,0.000110
2502.150670,0.000052
2502.632872,0.000070
2503.115075,0.000028
2503.597278,0.000037
2504.079481,0.000145
2504.561684,0.000122
2505.043887,0.000059
2505.526090,0.000142
2506.008293,0.000167
2506.490495,0.000134
2506.972698,0.000238
2507.454901,0.000274
2507.937104,0.000139
2508.419307,0.000050
2508.901510,0.000013
2509.383713,0.000006
2509.865915,0.000056
2510.348118,0.000061
2510.830321,0.000013
2511.312524,-0.000017
2511.794727,0.000041
2512.276930,0.000135
2512.759133,0.000112
2513.241336,0.000026
2513.723538,-0.000010
2514.205741,0.000051
2514.687944,0.000191
2515.170147,0.000224
2515.652350,0.000086
2516.134553,0.000017
2516.616756,0.000118
2517.098958,0.000164
2517.581161,0.000093
2518.063364,0.000075
2518.545567,0.000097
2519.027770,0.000062
2519.509973,0.000015
2519.992176,0.000011
2520.474378,0.000006
2520.956581,0.000035
2521.438784,0.000062
2521.920987,-0.000032
2522.403190,-0.000119
2522.885393,-0.000100
2523.367596,-0.000039
2523.849799,0.000008
2524.332001,0.000009
2524.814204,0.000007
2525.296407,0.000009
2525.778610,0.000036
2526.260813,0.000084
2526.743016,0.000026
2527.225219,-0.000066
2527.707421,-0.000034
2528.189624,-0.000000
2528.671827,-0.000048
2529.154030,-0.000029
2529.636233,0.000013
2530.118436,-0.000008
2530.600639,0.000013
2531.082842,0.000045
2531.565044,0.000035
2532.047247,0.000076
2532.529450,0.000143
2533.011653,0.000105
2533.493856,0.000054
2533.976059,0.000083
2534.458262,0.000074
2534.940464,0.000059
2535.422667,0.000024
2535.904870,-0.000094
2536.387073,-0.000136
2536.869276,-0.000061
2537.351479,0.000028
2537.833682,0.000079
2538.315885,0.000087
2538.798087,0.000062
2539.280290,0.000029
2539.762493,0.000043
2540.244696,0.000090
2540.726899,0.000150
2541.209102,0.000175
2541.691305,0.000095
2542.173507,0.000030
2542.655710,0.000008
2543.137913,-0.000096
2543.620116,-0.000145
2544.102319,-0.000069
2544.584522,-0.000043
2545.066725,-0.000007
2545.548928,0.000064
2546.031130,0.000085
2546.513333,0.000027
2546.995536,-0.000121
2547.477739,-0.000151
2547.959942,-0.000077
2548.442145,-0.000073
2548.924348,-0.000082
2549.406550,-0.000118
2549.888753,-0.000086
2550.370956,0.000049
2550.853159,0.000029
2551.335362,-0.000102
2551.817565,-0.000056
2552.299768,0.000051
2552.781970,-0.000033
2553.264173,-0.000102
2553.746376,-0.000071
2554.228579,-0.000078
2554.710782,-0.000051
2555.192985,-0.000074
2555.675188,-0.000108
2556.157391,-0.000052
2556.639593,-0.000010
2557.121796,0.000067
2557.603999,0.000074
2558.086202,-0.000024
2558.568405,-0.000062
2559.050608,-0.000057
2559.532811,0.000009
2560.015013,0.000066
2560.497216,0.000029
2560.979419,-0.000031
2561.461622,-0.000084
2561.943825,-0.000052
2562.426028,0.000015
2562.908231,-0.000009
2563.390434,-0.000079
2563.872636,-0.000104
2564.354839,-0.000065
2564.837042,-0.000050
2565.319245,-0.000071
2565.801448,-0.000032
2566.283651,-0.000018
2566.765854,-0.000121
2567.248056,-0.000176
2567.730259,-0.000123
2568.212462,-0.000107
2568.694665,-0.000070
2569.176868,0.000018
2569.659071,0.000033
2570.141274,-0.000009
2570.623477,-0.000061
2571.105679,-0.000025
2571.587882,0.000013
2572.070085,-0.000145
2572.552288,-0.000203
2573.034491,-0.000018
2573.516694,0.000009
2573.998897,-0.000118
2574.481099,-0.000119
2574.963302,-0.000035
2575.445505,0.000038
2575.927708,0.000026
2576.409911,-0.000039
2576.892114,-0.000037
2577.374317,-0.000031
2577.856520,-0.000044
2578.338722,-0.000054
2578.820925,-0.000083
2579.303128,-0.000076
2579.785331,-0.000105
2580.267534,-0.000161
2580.749737,-0.000104
2581.231940,-0.000051
2581.714142,-0.000046
2582.196345,-0.000005
2582.678548,-0.000018
2583.160751,-0.000040
2583.642954,-0.000010
2584.125157,0.000000
2584.607360,0.000020
2585.089562,0.000007
2585.571765,-0.000040
2586.053968,-0.000066
2586.536171,-0.000151
2587.018374,-0.000188
2587.500577,-0.000142
2587.982780,-0.000187
2588.464983,-0.000264
2588.947185,-0.000246
2589.429388,-0.000156
2589.911591,-0.000101
2590.393794,-0.000104
2590.875997,-0.000086
2591.358200,-0.000095
2591.840403,-0.000083
2592.322605,0.000015
2592.804808,0.000022
2593.287011,-0.000074
2593.769214,-0.000153
2594.251417,-0.000182
2594.733620,-0.000113
2595.215823,-0.000065
2595.698026,-0.000160
2596.180228,-0.000233
2596.662431,-0.000164
2597.144634,-0.000019
2597.626837,0.000065
2598.109040,0.000059
2598.591243,0.000044
2599.073446,-0.000054
2599.555648,-0.000206
2600.037851,-0.000183
2600.520054,-0.000063
2601.002257,-0.000052
2601.484460,-0.000099
2601.966663,-0.000155
2602.448866,-0.000234
2602.931069,-0.000242
2603.413271,-0.000158
2603.895474,-0.000072
2604.377677,-0.000024
2604.859880,-0.000015
2605.342083,-0.000020
2605.824286,-0.000070
2606.306489,-0.000180
2606.788691,-0.000180
2607.270894,-0.000079
2607.753097,-0.000067
2608.235300,-0.000085
2608.717503,-0.000052
2609.199706,-0.000007
2609.681909,0.000041
2610.164111,-0.000028
2610.646314,-0.000198
2611.128517,-0.000216
2611.610720,-0.000103
2612.092923,-0.000066
2612.575126,-0.000106
2613.057329,-0.000165
2613.539532,-0.000210
2614.021734,-0.000205
2614.503937,-0.000203
2614.986140,-0.000189
2615.468343,-0.000135
2615.950546,-0.000134
2616.432749,-0.000149
2616.914952,-0.000089
2617.397154,-0.000051
2617.879357,-0.000113
2618.361560,-0.000171
2618.843763,-0.000192
2619.325966,-0.000182
2619.808169,-0.000098
2620.290372,-0.000076
2620.772575,-0.000119
2621.254777,-0.000103
2621.736980,-0.000088
2622.219183,-0.000016
2622.701386,0.000074
2623.183589,0.000038
2623.665792,-0.000033
2624.147995,-0.000067
2624.630197,-0.000025
2625.112400,-0.000022
2625.594603,-0.000159
2626.076806,-0.000220
2626.559009,-0.000165
2627.041212,-0.000146
2627.523415,-0.000141
2628.005618,-0.000107
2628.487820,-0.000063
2628.970023,-0.000044
2629.452226,-0.000062
2629.934429,-0.000123
2630.416632,-0.000215
2630.898835,-0.000239
2631.381038,-0.000193
2631.863240,-0.000132
2632.345443,-0.000091
2632.827646,-0.000137
2633.309849,-0.000129
2633.792052,-0.000038
2634.274255,-0.000050
2634.756458,-0.000067
2635.238661,-0.000043
2635.720863,-0.000046
2636.203066,-0.000026
2636.685269,-0.000059
2637.167472,-0.000124
2637.649675,-0.000103
2638.131878,-0.000080
2638.614081,-0.000100
2639.096283,-0.000082
2639.578486,-0.000020
2640.060689,0.000018
2640.542892,-0.000018
2641.025095,-0.000092
2641.507298,-0.000156
2641.989501,-0.000175
2642.471703,-0.000125
2642.953906,-0.000095
2643.436109,-0.000086
2643.918312,-0.000060
2644.400515,-0.000086
2644.882718,-0.000085
2645.364921,-0.000093
2645.847124,-0.000169
2646.329326,-0.000141
2646.811529,-0.000098
2647.293732,-0.000151
2647.775935,-0.000174
2648.258138,-0.000142
2648.740341,-0.000075
2649.222544,-0.000031
2649.704746,-0.000020
2650.186949,0.000011
2650.669152,-0.000033
2651.151355,-0.000144
2651.633558,-0.000194
2652.115761,-0.000202
2652.597964,-0.000203
2653.080167,-0.000212
2653.562369,-0.000252
2654.044572,-0.000236
2654.526775,-0.000142
2655.008978,-0.000107
2655.491181,-0.000158
2655.973384,-0.000181
2656.455587,-0.000157
2656.937789,-0.000134
2657.419992,-0.000156
2657.902195,-0.000258
2658.384398,-0.000314
2658.866601,-0.000279
2659.348804,-0.000286
2659.831007,-0.000235
2660.313210,-0.000077
2660.795412,-0.000022
2661.277615,-0.000131
2661.759818,-0.000221
2662.242021,-0.000179
2662.724224,-0.000174
2663.206427,-0.000213
2663.688630,-0.000196
2664.170832,-0.000243
2664.653035,-0.000283
2665.135238,-0.000217
2665.617441,-0.000156
2666.099644,-0.000107
2666.581847,-0.000067
2667.064050,-0.000102
2667.546253,-0.000156
2668.028455,-0.000094
2668.510658,-0.000096
2668.992861,-0.000284
2669.475064,-0.000327
2669.957267,-0.000148
2670.439470,0.000008
2670.921673,0.000017
2671.403875,-0.000045
2671.886078,-0.000024
2672.368281,0.000013
2672.850484,0.000017
2673.332687,-0.000048
2673.814890,-0.000208
2674.297093,-0.000207
2674.779295,-0.000125
2675.261498,-0.000168
2675.743701,-0.000162
2676.225904,-0.000104
2676.708107,-0.000068
2677.190310,-0.000032
2677.672513,-0.000043
2678.154716,-0.000103
2678.636918,-0.000170
2679.119121,-0.000151
2679.601324,-0.000051
2680.083527,-0.000030
2680.565730,-0.000106
2681.047933,-0.000152
2681.530136,-0.000159
2682.012338,-0.000163
2682.494541,-0.000125
2682.976744,-0.000119
2683.458947,-0.000167
2683.941150,-0.000148
2684.423353,-0.000153
2684.905556,-0.000181
2685.387759,-0.000077
2685.869961,-0.000002
2686.352164,-0.000113
2686.834367,-0.000242
2687.316570,-0.000225
2687.798773,-0.000129
2688.280976,-0.000045
2688.763179,-0.000010
2689.245381,-0.000069
2689.727584,-0.000171
2690.209787,-0.000255
2690.691990,-0.000249
2691.174193,-0.000152
2691.656396,-0.000132
2692.138599,-0.000140
2692.620802,-0.000107
2693.103004,-0.000114
2693.585207,-0.000116
2694.067410,-0.000138
2694.549613,-0.000171
2695.031816,-0.000117
2695.514019,-0.000049
2695.996222,-0.000019
2696.478424,0.000057
2696.960627,0.000122
2697.442830,-0.000026
2697.925033,-0.000194
2698.407236,-0.000158
2698.889439,-0.000147
2699.371642,-0.000210
2699.853844,-0.000200
2700.336047,-0.000135
2700.818250,-0.000058
2701.300453,-0.000054
2701.782656,-0.000117
2702.264859,-0.000142
2702.747062,-0.000100
2703.229265,-0.000025
2703.711467,0.000031
2704.193670,0.000030
2704.675873,-0.000051
2705.158076,-0.000159
2705.640279,-0.000216
2706.122482,-0.000223
2706.604685,-0.000155
2707.086887,-0.000059
2707.569090,-0.000042
2708.051293,-0.000075
2708.533496,-0.000063
2709.015699,-0.000012
2709.497902,0.000008
2709.980105,-0.000025
2710.462308,-0.000064
2710.944510,-0.000058
2711.426713,-0.000095
2711.908916,-0.000198
2712.391119,-0.000177
2712.873322,-0.000079
2713.355525,-0.000050
2713.837728,-0.000030
2714.319930,-0.000002
2714.802133,0.000002
2715.284336,0.000020
2715.766539,0.000029
2716.248742,-0.000018
2716.730945,-0.000034
2717.213148,-0.000018
2717.695351,-0.000070
2718.177553,-0.000123
2718.659756,-0.000104
2719.141959,-0.000033
2719.624162,-0.000003
2720.106365,-0.000007
2720.588568,0.000003
2721.070771,-0.000082
2721.552973,-0.000157
2722.035176,-0.000098
2722.517379,-0.000065
2722.999582,-0.000103
2723.481785,-0.000104
2723.963988,-0.000036
2724.446191,-0.000047
2724.928394,-0.000184
2725.410596,-0.000226
2725.892799,-0.000166
2726.375002,-0.000109
2726.857205,-0.000042
2727.339408,-0.000067
2727.821611,-0.000178
2728.303814,-0.000220
2728.786016,-0.000174
2729.268219,-0.000116
2729.750422,-0.000109
2730.232625,-0.000093
2730.714828,-0.000098
2731.197031,-0.000159
2731.679234,-0.000107
2732.161436,-0.000044
2732.643639,-0.000075
2733.125842,-0.000070
2733.608045,-0.000067
2734.090248,-0.000016
2734.572451,0.000062
2735.054654,-0.000001
2735.536857,-0.000063
2736.019059,-0.000028
2736.501262,0.000012
2736.983465,0.000035
2737.465668,0.000040
2737.947871,0.000033
2738.430074,0.000034
2738.912277,0.000069
2739.394479,0.000088
2739.876682,0.000022
2740.358885,-0.000075
2740.841088,-0.000128
2741.323291,-0.000074
2741.805494,0.000005
2742.287697,-0.000040
2742.769900,-0.000085
2743.252102,-0.000007
2743.734305,0.000053
2744.216508,0.000029
2744.698711,-0.000014
2745.180914,-0.000014
2745.663117,0.000079
2746.145320,0.000121
2746.627522,0.000048
2747.109725,-0.000009
2747.591928,-0.000127
2748.074131,-0.000195
2748.556334,-0.000073
2749.038537,0.000002
2749.520740,-0.000013
2750.002943,-0.000028
2750.485145,-0.000030
2750.967348,0.000028
2751.449551,0.000069
2751.931754,-0.000036
2752.413957,-0.000135
2752.896160,-0.000063
2753.378363,-0.000011
2753.860565,0.000045
2754.342768,0.000126
2754.824971,0.000005
2755.307174,-0.000082
2755.789377,-0.000003
2756.271580,0.000029
2756.753783,0.000041
2757.235986,0.000008
2757.718188,-0.000114
2758.200391,-0.000139
2758.682594,-0.000014
2759.164797,0.000050
2759.647000,0.000044
2760.129203,0.000041
2760.611406,-0.000035
2761.093608,-0.000050
2761.575811,0.000028
2762.058014,0.000036
2762.540217,0.000015
2763.022420,0.000023
2763.504623,0.000029
2763.986826,0.000027
2764.469028,0.000029
2764.951231,0.000001
2765.433434,-0.000049
2765.915637,-0.000007
2766.397840,0.000071
2766.880043,0.000042
2767.362246,-0.000020
2767.844449,0.000012
2768.326651,0.000023
2768.808854,-0.000067
2769.291057,-0.000078
2769.773260,-0.000026
2770.255463,-0.000068
2770.737666,-0.000108
2771.219869,-0.000079
2771.702071,-0.000056
2772.184274,-0.000009
2772.666477,0.000119
2773.148680,0.000162
2773.630883,0.000083
2774.113086,0.000084
2774.595289,0.000135
2775.077492,0.000122
2775.559694,0.000075
2776.041897,0.000060
2776.524100,0.000069
2777.006303,0.000038
2777.488506,0.000040
2777.970709,0.000067
2778.452912,0.000057
2778.935114,0.000074
2779.417317,0.000121
2779.899520,0.000135
2780.381723,0.000058
2780.863926,-0.000035
2781.346129,-0.000044
2781.828332,0.000010
2782.310535,0.000073
2782.792737,0.000072
2783.274940,0.000052
2783.757143,0.000020
2784.239346,-0.000033
2784.721549,-0.000022
2785.203752,0.000019
2785.685955,0.000038
2786.168157,0.000015
2786.650360,0.000021
2787.132563,0.000035
2787.614766,-0.000008
2788.096969,0.000014
2788.579172,0.000018
2789.061375,-0.000009
2789.543577,0.000037
2790.025780,0.000001
2790.507983,-0.000022
2790.990186,0.000057
2791.472389,0.000024
2791.954592,-0.000030
2792.436795,0.000038
2792.918998,0.000100
2793.401200,0.000093
2793.883403,0.000043
2794.365606,0.000005
2794.847809,-0.000023
2795.330012,-0.000100
2795.812215,-0.000098
2796.294418,0.000011
2796.776620,0.000075
2797.258823,0.000089
2797.741026,0.000076
2798.223229,0.000027
2798.705432,-0.000037
2799.187635,-0.000075
2799.669838,-0.000038
2800.152041,-0.000026
2800.634243,-0.000095
2801.116446,-0.000110
2801.598649,-0.000042
2802.080852,0.000048
2802.563055,0.000135
2803.045258,0.000144
2803.527461,0.000054
2804.009663,0.000013
2804.491866,0.000092
2804.974069,0.000103
2805.456272,0.000014
2805.938475,0.000054
2806.420678,0.000158
2806.902881,0.000184
2807.385084,0.000151
2807.867286,0.000092
2808.349489,0.000133
2808.831692,0.000150
2809.313895,0.000026
2809.796098,0.000035
2810.278301,0.000124
2810.760504,0.000084
2811.242706,0.000078
2811.724909,0.000095
2812.207112,-0.000018
2812.689315,-0.000091
2813.171518,-0.000046
2813.653721,-0.000009
2814.135924,0.000050
2814.618127,0.000105
2815.100329,0.000071
2815.582532,0.000028
2816.064735,0.000061
2816.546938,0.000105
2817.029141,0.000066
2817.511344,-0.000026
2817.993547,-0.000124
2818.475749,-0.000201
2818.957952,-0.000187
2819.440155,-0.000088
2819.922358,-0.000014
2820.404561,0.000013
2820.886764,0.000140
2821.368967,0.000219
2821.851169,0.000122
2822.333372,0.000134
2822.815575,0.000186
2823.297778,0.000129
2823.779981,0.000076
2824.262184,-0.000005
2824.744387,-0.000061
2825.226590,-0.000016
2825.708792,0.000009
2826.190995,-0.000102
2826.673198,-0.000140
2827.155401,0.000025
2827.637604,0.000126
2828.119807,0.000160
2828.602010,0.000177
2829.084212,0.000093
2829.566415,0.000023
2830.048618,0.000036
2830.530821,0.000101
2831.013024,0.000055
2831.495227,-0.000032
2831.977430,0.000063
2832.459633,0.000132
2832.941835,0.000115
2833.424038,0.000145
2833.906241,0.000139
2834.388444,0.000132
2834.870647,0.000161
2835.352850,0.000180
2835.835053,0.000180
2836.317255,0.000217
2836.799458,0.000333
2837.281661,0.000331
2837.763864,0.000172
2838.246067,0.000117
2838.728270,0.000191
2839.210473,0.000241
2839.692676,0.000232
2840.174878,0.000158
2840.657081,0.000086
2841.139284,0.000109
2841.621487,0.000099
2842.103690,0.000043
2842.585893,0.000109
2843.068096,0.000163
2843.550298,0.000181
2844.032501,0.000224
2844.514704,0.000234
2844.996907,0.000340
2845.479110,0.000419
2845.961313,0.000358
2846.443516,0.000430
2846.925719,0.000554
2847.407921,0.000453
2847.890124,0.000273
2848.372327,0.000236
2848.854530,0.000272
2849.336733,0.000358
2849.818936,0.000478
2850.301139,0.000464
2850.783341,0.000446
2851.265544,0.000503
2851.747747,0.000506
2852.229950,0.000553
2852.712153,0.000615
2853.194356,0.000610
2853.676559,0.000643
2854.158761,0.000705
2854.640964,0.000664
2855.123167,0.000586
2855.605370,0.000617
2856.087573,0.000611
2856.569776,0.000606
2857.051979,0.000813
2857.534182,0.001052
2858.016384,0.001147
2858.498587,0.001085
2858.980790,0.001030
2859.462993,0.001159
2859.945196,0.001229
2860.427399,0.001196
2860.909602,0.001214
2861.391804,0.001210
2861.874007,0.001347
2862.356210,0.001512
2862.838413,0.001437
2863.320616,0.001459
2863.802819,0.001511
2864.285022,0.001477
2864.767225,0.001780
2865.249427,0.002094
2865.731630,0.002018
2866.213833,0.001973
2866.696036,0.002163
2867.178239,0.002305
2867.660442,0.002346
2868.142645,0.002575
2868.624847,0.002874
2869.107050,0.002924
2869.589253,0.002901
2870.071456,0.002952
2870.553659,0.003011
2871.035862,0.003209
2871.518065,0.003415
2872.000268,0.003400
2872.482470,0.003502
2872.964673,0.003794
2873.446876,0.003942
2873.929079,0.003960
2874.411282,0.004010
2874.893485,0.004245
2875.375688,0.004530
2875.857890,0.004704
2876.340093,0.004805
2876.822296,0.004780
2877.304499,0.004860
2877.786702,0.005138
2878.268905,0.005395
2878.751108,0.005507
2879.233311,0.005420
2879.715513,0.005528
2880.197716,0.006026
2880.679919,0.006367
2881.162122,0.006250
2881.644325,0.006194
2882.126528,0.006639
2882.608731,0.007093
2883.090933,0.007123
2883.573136,0.006992
2884.055339,0.006974
2884.537542,0.007266
2885.019745,0.007623
2885.501948,0.007549
2885.984151,0.007368
2886.466353,0.007597
2886.948556,0.007994
2887.430759,0.008054
2887.912962,0.007769
2888.395165,0.007683
2888.877368,0.008015
2889.359571,0.008235
2889.841774,0.008008
2890.323976,0.007871
2890.806179,0.008227
2891.288382,0.008575
2891.770585,0.008441
2892.252788,0.008058
2892.734991,0.008005
2893.217194,0.008245
2893.699396,0.008183
2894.181599,0.007864
2894.663802,0.007755
2895.146005,0.007914
2895.628208,0.007894
2896.110411,0.007613
2896.592614,0.007538
2897.074817,0.007500
2897.557019,0.007122
2898.039222,0.006706
2898.521425,0.006758
2899.003628,0.006942
2899.485831,0.006524
2899.968034,0.006110
2900.450237,0.006404
2900.932439,0.006508
2901.414642,0.005850
2901.896845,0.005540
2902.379048,0.005889
2902.861251,0.005740
2903.343454,0.005326
2903.825657,0.005193
2904.307860,0.004852
2904.790062,0.004486
2905.272265,0.004100
2905.754468,0.003403
2906.236671,0.002799
2906.718874,0.002560
2907.201077,0.002751
2907.683280,0.003264
2908.165482,0.003972
2908.647685,0.004869
2909.129888,0.005552
2909.612091,0.006038
2910.094294,0.006889
2910.576497,0.007810
2911.058700,0.008301
2911.540902,0.008880
2912.023105,0.009685
2912.505308,0.010034
2912.987511,0.010400
2913.469714,0.011163
2913.951917,0.011383
2914.434120,0.011578
2914.916323,0.012431
2915.398525,0.012602
2915.880728,0.012436
2916.362931,0.013074
2916.845134,0.013111
2917.327337,0.012875
2917.809540,0.013377
2918.291743,0.013146
2918.773945,0.013006
2919.256148,0.013292
2919.738351,0.012671
2920.220554,0.012468
2920.702757,0.012376
2921.184960,0.011859
2921.667163,0.011833
2922.149366,0.011448
2922.631568,0.010968
2923.113771,0.010693
2923.595974,0.010130
2924.078177,0.009718
2924.560380,0.009327
2925.042583,0.008851
2925.524786,0.008264
2926.006988,0.007637
2926.489191,0.007188
2926.971394,0.006623
2927.453597,0.006031
2927.935800,0.005538
2928.418003,0.005081
2928.900206,0.004644
2929.382409,0.004157
2929.864611,0.003700
2930.346814,0.003276
2930.829017,0.002860
2931.311220,0.002499
2931.793423,0.002147
2932.275626,0.001725
2932.757829,0.001418
2933.240031,0.001283
2933.722234,0.001049
2934.204437,0.000814
2934.686640,0.000677
2935.168843,0.000545
2935.651046,0.000458
2936.133249,0.000328
2936.615452,0.000127
2937.097654,0.000030
2937.579857,0.000081
2938.062060,0.000119
2938.544263,0.000092
2939.026466,0.000076
2939.508669,0.000035
2939.990872,-0.000071
2940.473074,-0.000135
2940.955277,-0.000085
2941.437480,-0.000034
2941.919683,-0.000058
2942.401886,-0.000053
2942.884089,0.000042
2943.366292,0.000076
2943.848494,-0.000014
2944.330697,-0.000035
2944.812900,0.000046
2945.295103,0.000054
2945.777306,-0.000091
2946.259509,-0.000176
2946.741712,-0.000041
2947.223915,0.000034
2947.706117,-0.000066
2948.188320,-0.000113
2948.670523,-0.000085
2949.152726,-0.000125
2949.634929,-0.000185
2950.117132,-0.000058
2950.599335,0.000176
2951.081537,0.000210
2951.563740,0.000025
2952.045943,-0.000111
2952.528146,-0.000105
2953.010349,-0.000151
2953.492552,-0.000232
2953.974755,-0.000194
2954.456958,-0.000099
2954.939160,0.000028
2955.421363,0.000103
2955.903566,0.000024
2956.385769,-0.000054
2956.867972,-0.000023
2957.350175,0.000005
2957.832378,-0.000014
2958.314580,0.000003
2958.796783,0.000009
2959.278986,0.000005
2959.761189,0.000047
2960.243392,0.000041
2960.725595,0.000049
2961.207798,0.000075
2961.690001,-0.000003
2962.172203,-0.000042
2962.654406,0.000017
2963.136609,0.000073
2963.618812,0.000121
2964.101015,0.000122
2964.583218,0.000089
2965.065421,0.000140
2965.547623,0.000208
2966.029826,0.000157
2966.512029,0.000030
2966.994232,-0.000033
2967.476435,0.000049
2967.958638,0.000092
2968.440841,0.000051
2968.923044,0.000055
2969.405246,0.000006
2969.887449,-0.000018
2970.369652,0.000052
2970.851855,-0.000010
2971.334058,-0.000087
2971.816261,0.000019
2972.298464,0.000117
2972.780666,0.000095
2973.262869,0.000056
2973.745072,0.000101
2974.227275,0.000189
2974.709478,0.000150
2975.191681,0.000030
2975.673884,0.000024
2976.156086,0.000101
2976.638289,0.000128
2977.120492,0.000060
2977.602695,-0.000011
2978.084898,0.000007
2978.567101,0.000094
2979.049304,0.000162
2979.531507,0.000170
2980.013709,0.000156
2980.495912,0.000059
2980.978115,-0.000096
2981.460318,-0.000097
2981.942521,0.000011
2982.424724,-0.000025
2982.906927,-0.000138
2983.389129,-0.000124
2983.871332,-0.000072
2984.353535,-0.000099
2984.835738,-0.000128
2985.317941,-0.000108
2985.800144,-0.000143
2986.282347,-0.000174
2986.764550,-0.000068
2987.246752,0.000008
2987.728955,0.000042
2988.211158,0.000043
2988.693361,-0.000081
2989.175564,-0.000094
2989.657767,0.000006
2990.139970,0.000034
2990.622172,0.000014
2991.104375,-0.000033
2991.586578,0.000007
2992.068781,0.000084
2992.550984,0.000014
2993.033187,-0.000097
2993.515390,-0.000057
2993.997593,0.000080
2994.479795,0.000074
2994.961998,-0.000055
2995.444201,-0.000055
2995.926404,0.000000
2996.408607,-0.000016
2996.890810,-0.000014
2997.373013,-0.000036
2997.855215,-0.000074
2998.337418,-0.000057
2998.819621,0.000015
2999.301824,0.000157
2999.784027,0.000254
3000.266230,0.000244
3000.748433,0.000108
3001.230635,-0.000060
3001.712838,-0.000044
3002.195041,-0.000004
3002.677244,-0.000052
3003.159447,-0.000076
3003.641650,-0.000094
3004.123853,-0.000071
3004.606056,-0.000071
3005.088258,-0.000133
3005.570461,-0.000118
3006.052664,-0.000041
3006.534867,0.000012
3007.017070,0.000026
3007.499273,0.000023
3007.981476,-0.000030
3008.463678,-0.000087
3008.945881,0.000014
3009.428084,0.000123
3009.910287,0.000057
3010.392490,0.000060
3010.874693,0.000139
3011.356896,0.000020
3011.839099,-0.000130
3012.321301,-0.000163
3012.803504,-0.000183
3013.285707,-0.000087
3013.767910,0.000052
3014.250113,0.000030
3014.732316,-0.000026
3015.214519,-0.000018
3015.696721,0.000013
3016.178924,0.000024
3016.661127,-0.000057
3017.143330,-0.000109
3017.625533,0.000035
3018.107736,0.000140
3018.589939,0.000083
3019.072142,0.000118
3019.554344,0.000157
3020.036547,0.000132
3020.518750,0.000187
3021.000953,0.000148
3021.483156,0.000097
3021.965359,0.000191
3022.447562,0.000139
3022.929764,-0.000049
3023.411967,-0.000063
3023.894170,0.000060
3024.376373,0.000142
3024.858576,0.000185
3025.340779,0.000203
3025.822982,0.000221
3026.305185,0.000203
3026.787387,0.000109
3027.269590,0.000150
3027.751793,0.000229
3028.233996,0.000178
3028.716199,0.000223
3029.198402,0.000287
3029.680605,0.000174
3030.162807,-0.000023
3030.645010,-0.000090
3031.127213,0.000029
3031.609416,0.000096
3032.091619,0.000075
3032.573822,0.000036
3033.056025,-0.000019
3033.538227,0.000082
3034.020430,0.000222
3034.502633,0.000199
3034.984836,0.000144
3035.467039,0.000105
3035.949242,0.000069
3036.431445,0.000061
3036.913648,0.000024
3037.395850,0.000028
3037.878053,0.000111
3038.360256,0.000162
3038.842459,0.000164
3039.324662,0.000181
3039.806865,0.000185
3040.289068,0.000144
3040.771270,0.000159
3041.253473,0.000188
3041.735676,0.000153
3042.217879,0.000180
3042.700082,0.000144
3043.182285,-0.000034
3043.664488,-0.000075
3044.146691,-0.000021
3044.628893,-0.000026
3045.111096,-0.000008
3045.593299,0.000021
3046.075502,0.000087
3046.557705,0.000194
3047.039908,0.000217
3047.522111,0.000217
3048.004313,0.000153
3048.486516,-0.000035
3048.968719,-0.000023
3049.450922,0.000123
3049.933125,0.000120
3050.415328,0.000114
3050.897531,0.000084
3051.379734,0.000026
3051.861936,0.000057
3052.344139,0.000014
3052.826342,-0.000034
3053.308545,0.000021
3053.790748,0.000045
3054.272951,0.000063
3054.755154,0.000045
3055.237356,0.000012
3055.719559,0.000047
3056.201762,0.000047
3056.683965,0.000052
3057.166168,0.000077
3057.648371,0.000082
3058.130574,0.000098
3058.612777,-0.000029
3059.094979,-0.000148
3059.577182,-0.000071
3060.059385,-0.000038
3060.541588,-0.000046
3061.023791,-0.000039
3061.505994,-0.000077
3061.988197,-0.000073
3062.470399,-0.000041
3062.952602,-0.000032
3063.434805,-0.000048
3063.917008,-0.000028
3064.399211,0.000044
3064.881414,0.000009
3065.363617,-0.000118
3065.845819,-0.000107
3066.328022,0.000026
3066.810225,0.000062
3067.292428,-0.000057
3067.774631,-0.000242
3068.256834,-0.000224
3068.739037,-0.000005
3069.221240,0.000003
3069.703442,-0.000045
3070.185645,0.000040
3070.667848,-0.000059
3071.150051,-0.000193
3071.632254,-0.000124
3072.114457,-0.000106
3072.596660,-0.000155
3073.078862,-0.000121
3073.561065,-0.000160
3074.043268,-0.000239
3074.525471,-0.000173
3075.007674,-0.000046
3075.489877,0.000044
3075.972080,-0.000076
3076.454283,-0.000309
3076.936485,-0.000253
3077.418688,-0.000097
3077.900891,-0.000074
3078.383094,-0.000057
3078.865297,-0.000031
3079.347500,0.000009
3079.829703,0.000006
3080.311905,-0.000022
3080.794108,-0.000086
3081.276311,-0.000273
3081.758514,-0.000348
3082.240717,-0.000211
3082.722920,-0.000018
3083.205123,0.000047
3083.687326,-0.000100
3084.169528,-0.000124
3084.651731,0.000011
3085.133934,0.000009
3085.616137,-0.000047
3086.098340,-0.000075
3086.580543,-0.000127
3087.062746,-0.000146
3087.544948,-0.000123
3088.027151,-0.000132
3088.509354,-0.000178
3088.991557,-0.000242
3089.473760,-0.000323
3089.955963,-0.000360
3090.438166,-0.000272
3090.920368,-0.000136
3091.402571,-0.000171
3091.884774,-0.000308
3092.366977,-0.000369
3092.849180,-0.000349
3093.331383,-0.000114
3093.813586,0.000099
3094.295789,-0.000020
3094.777991,-0.000136
3095.260194,-0.000119
3095.742397,-0.000139
3096.224600,-0.000167
3096.706803,-0.000125
3097.189006,-0.000089
3097.671209,-0.000175
3098.153411,-0.000203
3098.635614,-0.000125
3099.117817,-0.000085
3099.600020,-0.000003
3100.082223,-0.000012
3100.564426,-0.000196
3101.046629,-0.000224
3101.528832,-0.000092
3102.011034,-0.000059
3102.493237,-0.000116
3102.975440,-0.000175
3103.457643,-0.000176
3103.939846,-0.000125
3104.422049,-0.000119
3104.904252,-0.000143
3105.386454,-0.000150
3105.868657,-0.000118
3106.350860,-0.000045
3106.833063,-0.000032
3107.315266,0.000030
3107.797469,0.000143
3108.279672,0.000026
3108.761875,-0.000103
3109.244077,0.000002
3109.726280,0.000015
3110.208483,-0.000116
3110.690686,-0.000179
3111.172889,-0.000175
3111.655092,-0.000087
3112.137295,-0.000064
3112.619497,-0.000206
3113.101700,-0.000183
3113.583903,-0.000065
3114.066106,-0.000167
3114.548309,-0.000231
3115.030512,-0.000156
3115.512715,-0.000111
3115.994918,-0.000056
3116.477120,-0.000048
3116.959323,-0.000067
3117.441526,-0.000035
3117.923729,-0.000109
3118.405932,-0.000193
3118.888135,-0.000115
3119.370338,-0.000117
3119.852540,-0.000180
3120.334743,-0.000101
3120.816946,-0.000070
3121.299149,-0.000075
3121.781352,-0.000019
3122.263555,-0.000038
3122.745758,-0.000108
3123.227960,-0.000171
3123.710163,-0.000181
3124.192366,-0.000114
3124.674569,-0.000104
3125.156772,-0.000143
3125.638975,-0.000129
3126.121178,-0.000123
3126.603381,-0.000151
3127.085583,-0.000158
3127.567786,-0.000132
3128.049989,-0.000053
3128.532192,-0.000034
3129.014395,-0.000153
3129.496598,-0.000159
3129.978801,-0.000074
3130.461003,-0.000182
3130.943206,-0.000261
3131.425409,-0.000209
3131.907612,-0.000321
3132.389815,-0.000404
3132.872018,-0.000271
3133.354221,-0.000204
3133.836424,-0.000202
3134.318626,-0.000151
3134.800829,-0.000160
3135.283032,-0.000190
3135.765235,-0.000119
3136.247438,-0.000003
3136.729641,-0.000042
3137.211844,-0.000158
3137.694046,-0.000083
3138.176249,-0.000016
3138.658452,-0.000122
3139.140655,-0.000175
3139.622858,-0.000193
3140.105061,-0.000280
3140.587264,-0.000372
3141.069467,-0.000332
3141.551669,-0.000160
3142.033872,-0.000057
3142.516075,-0.000014
3142.998278,-0.000071
3143.480481,-0.000251
3143.962684,-0.000246
3144.444887,-0.000130
3144.927089,-0.000171
3145.409292,-0.000236
3145.891495,-0.000212
3146.373698,-0.000252
3146.855901,-0.000313
3147.338104,-0.000220
3147.820307,-0.000169
3148.302510,-0.000313
3148.784712,-0.000424
3149.266915,-0.000401
3149.749118,-0.000401
3150.231321,-0.000398
3150.713524,-0.000282
3151.195727,-0.000256
3151.677930,-0.000311
3152.160132,-0.000194
3152.642335,-0.000019
3153.124538,-0.000003
3153.606741,-0.000174
3154.088944,-0.000255
3154.571147,-0.000140
3155.053350,-0.000179
3155.535552,-0.000267
3156.017755,-0.000234
3156.499958,-0.000392
3156.982161,-0.000540
3157.464364,-0.000433
3157.946567,-0.000317
3158.428770,-0.000159
3158.910973,-0.000040
3159.393175,-0.000093
3159.875378,-0.000121
3160.357581,-0.000194
3160.839784,-0.000225
3161.321987,-0.000158
3161.804190,-0.000261
3162.286393,-0.000313
3162.768595,-0.000243
3163.250798,-0.000242
3163.733001,-0.000148
3164.215204,-0.000019
3164.697407,-0.000028
3165.179610,-0.000115
3165.661813,-0.000208
3166.144016,-0.000235
3166.626218,-0.000098
3167.108421,0.000061
3167.590624,-0.000033
3168.072827,-0.000178
3168.555030,-0.000162
3169.037233,-0.000121
3169.519436,-0.000125
3170.001638,-0.000278
3170.483841,-0.000366
3170.966044,-0.000210
3171.448247,-0.000149
3171.930450,-0.000165
3172.412653,-0.000162
3172.894856,-0.000215
3173.377059,-0.000273
3173.859261,-0.000360
3174.341464,-0.000350
3174.823667,-0.000206
3175.305870,-0.000127
3175.788073,-0.000098
3176.270276,-0.000019
3176.752479,-0.000022
3177.234681,-0.000169
3177.716884,-0.000172
3178.199087,-0.000089
3178.681290,-0.000101
3179.163493,-0.000068
3179.645696,-0.000094
3180.127899,-0.000210
3180.610102,-0.000300
3181.092304,-0.000326
3181.574507,-0.000201
3182.056710,-0.000086
3182.538913,-0.000136
3183.021116,-0.000196
3183.503319,-0.000125
3183.985522,-0.000037
3184.467724,-0.000075
3184.949927,-0.000051
3185.432130,0.000111
3185.914333,0.000106
3186.396536,-0.000079
3186.878739,-0.000102
3187.360942,-0.000057
3187.843144,-0.000145
3188.325347,-0.000142
3188.807550,-0.000130
3189.289753,-0.000162
3189.771956,0.000008
3190.254159,0.000068
3190.736362,-0.000074
3191.218565,-0.000097
3191.700767,-0.000151
3192.182970,-0.000142
3192.665173,0.000060
3193.147376,0.000039
3193.629579,-0.000146
3194.111782,-0.000180
3194.593985,-0.000205
3195.076187,-0.000244
3195.558390,-0.000202
3196.040593,-0.000143
3196.522796,-0.000123
3197.004999,-0.000174
3197.487202,-0.000228
3197.969405,-0.000218
3198.451608,-0.000137
3198.933810,0.000028
3199.416013,0.000068
3199.898216,-0.000075
3200.380419,-0.000102
3200.862622,-0.000053
3201.344825,-0.000112
3201.827028,-0.000161
3202.309230,-0.000162
3202.791433,-0.000112
3203.273636,-0.000049
3203.755839,-0.000133
3204.238042,-0.000347
3204.720245,-0.000483
3205.202448,-0.000363
3205.684651,-0.000146
3206.166853,-0.000107
3206.649056,-0.000114
3207.131259,-0.000101
3207.613462,-0.000109
3208.095665,-0.000007
3208.577868,-0.000009
3209.060071,-0.000260
3209.542273,-0.000378
3210.024476,-0.000164
3210.506679,0.000129
3210.988882,0.000100
3211.471085,-0.000150
3211.953288,-0.000110
3212.435491,0.000057
3212.917693,-0.000015
3213.399896,-0.000144
3213.882099,-0.000108
3214.364302,0.000068
3214.846505,0.000057
3215.328708,-0.000147
3215.810911,-0.000141
3216.293114,-0.000094
3216.775316,-0.000166
3217.257519,-0.000087
3217.739722,0.000054
3218.221925,0.000045
3218.704128,-0.000064
3219.186331,-0.000117
3219.668534,-0.000025
3220.150736,0.000048
3220.632939,-0.000043
3221.115142,-0.000107
3221.597345,-0.000094
3222.079548,-0.000139
3222.561751,-0.000119
3223.043954,-0.000091
3223.526157,-0.000115
3224.008359,-0.000056
3224.490562,-0.000110
3224.972765,-0.000108
3225.454968,0.000116
3225.937171,0.000120
3226.419374,0.000030
3226.901577,0.000057
3227.383779,0.000031
3227.865982,0.000136
3228.348185,0.000301
3228.830388,0.000229
3229.312591,0.000017
3229.794794,-0.000072
3230.276997,-0.000004
3230.759200,-0.000004
3231.241402,-0.000011
3231.723605,0.000052
3232.205808,0.000062
3232.688011,0.000050
3233.170214,-0.000153
3233.652417,-0.000289
3234.134620,-0.000015
3234.616822,0.000071
3235.099025,-0.000018
3235.581228,0.000153
3236.063431,0.000148
3236.545634,-0.000074
3237.027837,-0.000106
3237.510040,0.000031
3237.992243,0.000123
3238.474445,0.000052
3238.956648,-0.000022
3239.438851,-0.000031
3239.921054,-0.000119
3240.403257,-0.000137
3240.885460,0.000050
3241.367663,0.000155
3241.849865,0.000003
3242.332068,-0.000126
3242.814271,-0.000070
3243.296474,-0.000038
3243.778677,-0.000105
3244.260880,-0.000022
3244.743083,0.000245
3245.225285,0.000388
3245.707488,0.000394
3246.189691,0.000314
3246.671894,0.000056
3247.154097,-0.000083
3247.636300,0.000086
3248.118503,0.000265
3248.600706,0.000121
3249.082908,-0.000170
3249.565111,-0.000021
3250.047314,0.000359
3250.529517,0.000384
3251.011720,0.000212
3251.493923,0.000101
3251.976126,0.000068
3252.458328,0.000085
3252.940531,0.000140
3253.422734,0.000166
3253.904937,0.000140
3254.387140,0.000252
3254.869343,0.000280
3255.351546,0.000160
3255.833749,0.000207
3256.315951,0.000104
3256.798154,-0.000091
3257.280357,0.000028
3257.762560,0.000154
3258.244763,0.000162
3258.726966,0.000149
3259.209169,0.000113
3259.691371,0.000148
3260.173574,0.000244
3260.655777,0.000287
3261.137980,0.000206
3261.620183,0.000147
3262.102386,0.000056
3262.584589,-0.000163
3263.066792,-0.000196
3263.548994,-0.000047
3264.031197,0.000088
3264.513400,0.000206
3264.995603,0.000148
3265.477806,-0.000087
3265.960009,-0.000184
3266.442212,-0.000020
3266.924414,0.000078
3267.406617,0.000036
3267.888820,0.000078
3268.371023,0.000064
3268.853226,0.000035
3269.335429,0.000096
3269.817632,0.000119
3270.299835,0.000164
3270.782037,0.000129
3271.264240,0.000046
3271.746443,0.000011
3272.228646,-0.000056
3272.710849,0.000054
3273.193052,0.000182
3273.675255,0.000203
3274.157457,0.000274
3274.639660,0.000175
3275.121863,0.000098
3275.604066,0.000213
3276.086269,0.000302
3276.568472,0.000310
3277.050675,0.000178
3277.532877,0.000080
3278.015080,0.000002
3278.497283,-0.000053
3278.979486,0.000118
3279.461689,0.000201
3279.943892,0.000141
3280.426095,0.000146
3280.908298,0.000159
3281.390500,0.000133
3281.872703,0.000076
3282.354906,0.000093
3282.837109,0.000130
3283.319312,0.000150
3283.801515,0.000089
3284.283718,-0.000152
3284.765920,-0.000140
3285.248123,0.000163
3285.730326,0.000260
3286.212529,0.000164
3286.694732,0.000070
3287.176935,-0.000047
3287.659138,-0.000216
3288.141341,-0.000314
3288.623543,-0.000238
3289.105746,-0.000153
3289.587949,-0.000138
3290.070152,0.000046
3290.552355,0.000275
3291.034558,0.000216
3291.516761,0.000144
3291.998963,0.000181
3292.481166,0.000105
3292.963369,0.000048
3293.445572,0.000020
3293.927775,0.000028
3294.409978,0.000146
3294.892181,0.000230
3295.374384,0.000309
3295.856586,0.000270
3296.338789,0.000077
3296.820992,0.000014
3297.303195,-0.000009
3297.785398,-0.000026
3298.267601,0.000008
3298.749804,-0.000005
3299.232006,0.000109
3299.714209,0.000235
3300.196412,0.000108
3300.678615,-0.000055
3301.160818,-0.000045
3301.643021,0.000088
3302.125224,0.000216
3302.607426,0.000281
3303.089629,0.000228
3303.571832,0.000058
3304.054035,-0.000119
3304.536238,-0.000271
3305.018441,-0.000283
3305.500644,-0.000070
3305.982847,0.000096
3306.465049,0.000010
3306.947252,-0.000043
3307.429455,0.000090
3307.911658,0.000139
3308.393861,0.000105
3308.876064,0.000142
3309.358267,0.000155
3309.840469,0.000027
3310.322672,-0.000033
3310.804875,0.000121
3311.287078,0.000061
3311.769281,-0.000114
3312.251484,-0.000016
3312.733687,0.000095
3313.215890,0.000147
3313.698092,0.000136
3314.180295,-0.000008
3314.662498,-0.000055
3315.144701,0.000053
3315.626904,0.000077
3316.109107,-0.000053
3316.591310,-0.000057
3317.073512,0.000012
3317.555715,0.000025
3318.037918,0.000197
3318.520121,0.000270
3319.002324,0.000100
3319.484527,0.000038
3319.966730,0.000097
3320.448933,0.000099
3320.931135,0.000049
3321.413338,0.000086
3321.895541,0.000152
3322.377744,0.000127
3322.859947,0.000158
3323.342150,0.000200
3323.824353,0.000168
3324.306555,0.000197
3324.788758,0.000224
3325.270961,0.000192
3325.753164,0.000222
3326.235367,0.000315
3326.717570,0.000306
3327.199773,0.000212
3327.681976,0.000168
3328.164178,0.000085
3328.646381,-0.000000
3329.128584,0.000041
3329.610787,0.000151
3330.092990,0.000244
3330.575193,0.000327
3331.057396,0.000490
3331.539598,0.000500
3332.021801,0.000333
3332.504004,0.000289
3332.986207,0.000206
3333.468410,0.000170
3333.950613,0.000346
3334.432816,0.000416
3334.915018,0.000335
3335.397221,0.000317
3335.879424,0.000473
3336.361627,0.000560
3336.843830,0.000313
3337.326033,0.000140
3337.808236,0.000311
3338.290439,0.000366
3338.772641,0.000295
3339.254844,0.000400
3339.737047,0.000416
3340.219250,0.000322
3340.701453,0.000181
3341.183656,0.000043
3341.665859,0.000245
3342.148061,0.000357
3342.630264,0.000180
3343.112467,0.000178
3343.594670,0.000202
3344.076873,0.000149
3344.559076,0.000189
3345.041279,0.000304
3345.523482,0.000327
3346.005684,0.000252
3346.487887,0.000423
3346.970090,0.000662
3347.452293,0.000583
3347.934496,0.000517
3348.416699,0.000532
3348.898902,0.000360
3349.381104,0.000310
3349.863307,0.000384
3350.345510,0.000322
3350.827713,0.000438
3351.309916,0.000619
3351.792119,0.000592
3352.274322,0.000574
3352.756525,0.000558
3353.238727,0.000491
3353.720930,0.000445
3354.203133,0.000509
3354.685336,0.000559
3355.167539,0.000363
3355.649742,0.000278
3356.131945,0.000510
3356.614147,0.000622
3357.096350,0.000451
3357.578553,0.000336
3358.060756,0.000459
3358.542959,0.000637
3359.025162,0.000708
3359.507365,0.000570
3359.989568,0.000421
3360.471770,0.000496
3360.953973,0.000458
3361.436176,0.000449
3361.918379,0.000732
3362.400582,0.000855
3362.882785,0.000826
3363.364988,0.000683
3363.847190,0.000445
3364.329393,0.000487
3364.811596,0.000473
3365.293799,0.000383
3365.776002,0.000568
3366.258205,0.000700
3366.740408,0.000759
3367.222610,0.000779
3367.704813,0.000724
3368.187016,0.000767
3368.669219,0.000634
3369.151422,0.000430
3369.633625,0.000470
3370.115828,0.000408
3370.598031,0.000328
3371.080233,0.000642
3371.562436,0.001079
3372.044639,0.001161
3372.526842,0.000883
3373.009045,0.000673
3373.491248,0.000630
3373.973451,0.000511
3374.455653,0.000504
3374.937856,0.000659
3375.420059,0.000736
3375.902262,0.000756
3376.384465,0.000556
3376.866668,0.000155
3377.348871,0.000078
3377.831074,0.000293
3378.313276,0.000380
3378.795479,0.000497
3379.277682,0.000677
3379.759885,0.000505
3380.242088,0.000306
3380.724291,0.000562
3381.206494,0.000771
3381.688696,0.000600
3382.170899,0.000487
3382.653102,0.000666
3383.135305,0.000926
3383.617508,0.001038
3384.099711,0.000954
3384.581914,0.000752
3385.064117,0.000595
3385.546319,0.000622
3386.028522,0.000651
3386.510725,0.000576
3386.992928,0.000715
3387.475131,0.000957
3387.957334,0.000967
3388.439537,0.000963
3388.921739,0.000998
3389.403942,0.000918
3389.886145,0.000747
3390.368348,0.000618
3390.850551,0.000709
3391.332754,0.000702
3391.814957,0.000550
3392.297160,0.000641
3392.779362,0.000707
3393.261565,0.000561
3393.743768,0.000376
3394.225971,0.000354
3394.708174,0.000525
3395.190377,0.000571
3395.672580,0.000644
3396.154782,0.000672
3396.636985,0.000398
3397.119188,0.000412
3397.601391,0.000653
3398.083594,0.000680
3398.565797,0.000683
3399.048000,0.000676
3399.530202,0.000626
3400.012405,0.000478
3400.494608,0.000314
3400.976811,0.000410
3401.459014,0.000563
3401.941217,0.000616
3402.423420,0.000738
3402.905623,0.000835
3403.387825,0.000787
3403.870028,0.000866
3404.352231,0.001093
3404.834434,0.001140
3405.316637,0.001135
3405.798840,0.001045
3406.281043,0.000836
3406.763245,0.000958
3407.245448,0.001112
3407.727651,0.000999
3408.209854,0.000954
3408.692057,0.000903
3409.174260,0.000878
3409.656463,0.000909
3410.138666,0.000707
3410.620868,0.000491
3411.103071,0.000512
3411.585274,0.000590
3412.067477,0.000615
3412.549680,0.000555
3413.031883,0.000464
3413.514086,0.000560
3413.996288,0.000787
3414.478491,0.000840
3414.960694,0.000696
3415.442897,0.000549
3415.925100,0.000467
3416.407303,0.000451
3416.889506,0.000567
3417.371709,0.000773
3417.853911,0.000813
3418.336114,0.000592
3418.818317,0.000416
3419.300520,0.000380
3419.782723,0.000362
3420.264926,0.000375
3420.747129,0.000333
3421.229331,0.000368
3421.711534,0.000443
3422.193737,0.000248
3422.675940,0.000055
3423.158143,0.000095
3423.640346,0.000292
3424.122549,0.000518
3424.604751,0.000552
3425.086954,0.000461
3425.569157,0.000421
3426.051360,0.000533
3426.533563,0.000637
3427.015766,0.000529
3427.497969,0.000402
3427.980172,0.000413
3428.462374,0.000443
3428.944577,0.000429
3429.426780,0.000561
3429.908983,0.000644
3430.391186,0.000423
3430.873389,0.000409
3431.355592,0.000631
3431.837794,0.000533
3432.319997,0.000364
3432.802200,0.000543
3433.284403,0.000682
3433.766606,0.000504
3434.248809,0.000257
3434.731012,0.000091
3435.213215,0.000199
3435.695417,0.000503
3436.177620,0.000771
3436.659823,0.000970
3437.142026,0.000778
3437.624229,0.000349
3438.106432,0.000271
3438.588635,0.000442
3439.070837,0.000494
3439.553040,0.000476
3440.035243,0.000570
3440.517446,0.000660
3440.999649,0.000818
3441.481852,0.001011
3441.964055,0.000778
3442.446258,0.000465
3442.928460,0.000536
3443.410663,0.000575
3443.892866,0.000566
3444.375069,0.000658
3444.857272,0.000488
3445.339475,0.000187
3445.821678,0.000184
3446.303880,0.000360
3446.786083,0.000388
3447.268286,0.000443
3447.750489,0.000774
3448.232692,0.000751
3448.714895,0.000316
3449.197098,0.000305
3449.679301,0.000519
3450.161503,0.000486
3450.643706,0.000358
3451.125909,0.000296
3451.608112,0.000482
3452.090315,0.000820
3452.572518,0.000804
3453.054721,0.000459
3453.536923,0.000318
3454.019126,0.000283
3454.501329,0.000301
3454.983532,0.000435
3455.465735,0.000314
3455.947938,0.000210
3456.430141,0.000281
3456.912343,0.000401
3457.394546,0.000695
3457.876749,0.000677
3458.358952,0.000394
3458.841155,0.000346
3459.323358,0.000355
3459.805561,0.000295
3460.287764,0.000289
3460.769966,0.000368
3461.252169,0.000410
3461.734372,0.000461
3462.216575,0.000454
3462.698778,0.000299
3463.180981,0.000333
3463.663184,0.000447
3464.145386,0.000385
3464.627589,0.000278
3465.109792,0.000268
3465.591995,0.000330
3466.074198,0.000240
3466.556401,0.000140
3467.038604,0.000151
3467.520807,0.000072
3468.003009,-0.000087
3468.485212,-0.000252
3468.967415,-0.000263
3469.449618,-0.000095
3469.931821,0.000106
3470.414024,0.000199
3470.896227,0.000173
3471.378429,0.000267
3471.860632,0.000306
3472.342835,0.000138
3472.825038,0.000048
3473.307241,0.000023
3473.789444,0.000088
3474.271647,0.000212
3474.753850,0.000229
3475.236052,0.000228
3475.718255,0.000181
3476.200458,0.000119
3476.682661,0.000038
3477.164864,-0.000061
3477.647067,0.000084
3478.129270,0.000156
3478.611472,-0.000005
3479.093675,0.000075
3479.575878,0.000251
3480.058081,0.000295
3480.540284,0.000419
3481.022487,0.000485
3481.504690,0.000247
3481.986893,0.000007
3482.469095,0.000084
3482.951298,0.000175
3483.433501,0.000168
3483.915704,0.000250
3484.397907,0.000231
3484.880110,0.000106
3485.362313,0.000213
3485.844515,0.000416
3486.326718,0.000370
3486.808921,0.000334
3487.291124,0.000350
3487.773327,0.000080
3488.255530,-0.000020
3488.737733,0.000195
3489.219935,0.000181
3489.702138,0.000109
3490.184341,0.000176
3490.666544,0.000179
3491.148747,0.000119
3491.630950,0.000090
3492.113153,0.000116
3492.595356,0.000103
3493.077558,0.000039
3493.559761,0.000114
3494.041964,0.000194
3494.524167,0.000032
3495.006370,-0.000046
3495.488573,0.000052
3495.970776,0.000125
3496.452978,0.000250
3496.935181,0.000284
3497.417384,0.000313
3497.899587,0.000253
3498.381790,-0.000109
3498.863993,-0.000068
3499.346196,0.000206
3499.828399,0.000115
3500.310601,0.000155
3500.792804,0.000310
3501.275007,0.000276
3501.757210,0.000130
3502.239413,0.000077
3502.721616,0.000256
3503.203819,0.000357
3503.686021,0.000302
3504.168224,0.000135
3504.650427,-0.000115
3505.132630,-0.000171
3505.614833,-0.000141
3506.097036,-0.000124
3506.579239,-0.000026
3507.061442,-0.000074
3507.543644,-0.000251
3508.025847,-0.000177
3508.508050,0.000149
3508.990253,0.000325
3509.472456,0.000153
3509.954659,0.000019
3510.436862,0.000199
3510.919064,0.000244
3511.401267,0.000163
3511.883470,0.000391
3512.365673,0.000465
3512.847876,0.000152
3513.330079,-0.000026
3513.812282,0.000010
3514.294484,0.000171
3514.776687,0.000219
3515.258890,0.000082
3515.741093,0.000230
3516.223296,0.000322
3516.705499,0.000182
3517.187702,0.000306
3517.669905,0.000330
3518.152107,0.000251
3518.634310,0.000300
3519.116513,0.000105
3519.598716,-0.000092
3520.080919,-0.000152
3520.563122,-0.000222
3521.045325,-0.000126
3521.527527,0.000013
3522.009730,0.000045
3522.491933,0.000054
3522.974136,0.000247
3523.456339,0.000557
3523.938542,0.000486
3524.420745,0.000170
3524.902948,0.000021
3525.385150,-0.000044
3525.867353,0.000027
3526.349556,0.000118
3526.831759,-0.000001
3527.313962,0.000053
3527.796165,0.000294
3528.278368,0.000174
3528.760570,-0.000124
3529.242773,-0.000062
3529.724976,0.000212
3530.207179,0.000371
3530.689382,0.000335
3531.171585,0.000066
3531.653788,-0.000131
3532.135991,-0.000156
3532.618193,-0.000228
3533.100396,-0.000145
3533.582599,0.000010
3534.064802,-0.000100
3534.547005,-0.000242
3535.029208,-0.000147
3535.511411,0.000037
3535.993613,0.000105
3536.475816,0.000147
3536.958019,0.000129
3537.440222,-0.000118
3537.922425,-0.000221
3538.404628,-0.000153
3538.886831,-0.000255
3539.369034,-0.000284
3539.851236,-0.000219
3540.333439,-0.000118
3540.815642,-0.000011
3541.297845,-0.000229
3541.780048,-0.000351
3542.262251,-0.000121
3542.744454,0.000109
3543.226656,0.000294
3543.708859,0.000315
3544.191062,0.000369
3544.673265,0.000563
3545.155468,0.000596
3545.637671,0.000434
3546.119874,0.000102
3546.602076,-0.000016
3547.084279,0.000079
3547.566482,-0.000061
3548.048685,-0.000067
3548.530888,0.000213
3549.013091,0.000344
3549.495294,0.000225
3549.977497,0.000145
3550.459699,0.000341
3550.941902,0.000423
3551.424105,0.000091
3551.906308,-0.000182
3552.388511,-0.000011
3552.870714,0.000328
3553.352917,0.000344
3553.835119,0.000175
3554.317322,0.000205
3554.799525,0.000238
3555.281728,0.000186
3555.763931,0.000268
3556.246134,0.000311
3556.728337,0.000214
3557.210540,0.000141
3557.692742,0.000189
3558.174945,0.000385
3558.657148,0.000536
3559.139351,0.000551
3559.621554,0.000521
3560.103757,0.000535
3560.585960,0.000674
3561.068162,0.000744
3561.550365,0.000707
3562.032568,0.000641
3562.514771,0.000539
3562.996974,0.000738
3563.479177,0.001055
3563.961380,0.001146
3564.443583,0.001289
3564.925785,0.001313
3565.407988,0.001270
3565.890191,0.001643
3566.372394,0.002080
3566.854597,0.002114
3567.336800,0.001917
3567.819003,0.001862
3568.301205,0.001888
3568.783408,0.001773
3569.265611,0.001557
3569.747814,0.001133
3570.230017,0.000815
3570.712220,0.000978
3571.194423,0.001270
3571.676626,0.001490
3572.158828,0.001610
3572.641031,0.001649
3573.123234,0.001626
3573.605437,0.001411
3574.087640,0.001304
3574.569843,0.001407
3575.052046,0.001388
3575.534248,0.001335
3576.016451,0.001365
3576.498654,0.001415
3576.980857,0.001564
3577.463060,0.001686
3577.945263,0.001706
3578.427466,0.001715
3578.909668,0.001619
3579.391871,0.001566
3579.874074,0.001585
3580.356277,0.001472
3580.838480,0.001394
3581.320683,0.001365
3581.802886,0.001313
3582.285089,0.001295
3582.767291,0.001352
3583.249494,0.001443
3583.731697,0.001367
3584.213900,0.001353
3584.696103,0.001520
3585.178306,0.001565
3585.660509,0.001657
3586.142711,0.001841
3586.624914,0.001977
3587.107117,0.002263
3587.589320,0.002397
3588.071523,0.002140
3588.553726,0.002130
3589.035929,0.002494
3589.518132,0.002553
3590.000334,0.002428
3590.482537,0.002357
3590.964740,0.001892
3591.446943,0.001186
3591.929146,0.000714
3592.411349,0.000420
3592.893552,0.000432
3593.375754,0.000750
3593.857957,0.000896
3594.340160,0.000813
3594.822363,0.000826
3595.304566,0.001094
3595.786769,0.001409
3596.268972,0.001350
3596.751175,0.001053
3597.233377,0.001052
3597.715580,0.001330
3598.197783,0.001474
3598.679986,0.001560
3599.162189,0.001713
3599.644392,0.001716
3600.126595,0.001650
3600.608797,0.001677
3601.091000,0.001792
3601.573203,0.001995
3602.055406,0.002143
3602.537609,0.002060
3603.019812,0.001832
3603.502015,0.001734
3603.984217,0.001828
3604.466420,0.001899
3604.948623,0.001868
3605.430826,0.001905
3605.913029,0.002061
3606.395232,0.002197
3606.877435,0.002313
3607.359638,0.002289
3607.841840,0.002103
3608.324043,0.002103
3608.806246,0.002220
3609.288449,0.002346
3609.770652,0.002332
3610.252855,0.001873
3610.735058,0.001603
3611.217260,0.001699
3611.699463,0.001574
3612.181666,0.001545
3612.663869,0.001922
3613.146072,0.001950
3613.628275,0.001461
3614.110478,0.001278
3614.592681,0.001463
3615.074883,0.001521
3615.557086,0.001437
3616.039289,0.001214
3616.521492,0.000908
3617.003695,0.000874
3617.485898,0.001180
3617.968101,0.001570
3618.450303,0.001639
3618.932506,0.001400
3619.414709,0.001271
3619.896912,0.001294
3620.379115,0.001143
3620.861318,0.000763
3621.343521,0.000516
3621.825724,0.000387
3622.307926,0.000280
3622.790129,0.000416
3623.272332,0.000581
3623.754535,0.000511
3624.236738,0.000278
3624.718941,0.000107
3625.201144,0.000252
3625.683346,0.000460
3626.165549,0.000619
3626.647752,0.000825
3627.129955,0.000800
3627.612158,0.000756
3628.094361,0.001119
3628.576564,0.001671
3629.058767,0.001796
3629.540969,0.001650
3630.023172,0.001613
3630.505375,0.001184
3630.987578,0.000527
3631.469781,0.000100
3631.951984,-0.000014
3632.434187,0.000288
3632.916389,0.000442
3633.398592,0.000143
3633.880795,0.000132
3634.362998,0.000270
3634.845201,0.000036
3635.327404,-0.000070
3635.809607,0.000009
3636.291809,0.000050
3636.774012,0.000164
3637.256215,0.000136
3637.738418,0.000007
3638.220621,-0.000059
3638.702824,-0.000132
3639.185027,-0.000006
3639.667230,0.000169
3640.149432,0.000080
3640.631635,-0.000087
3641.113838,-0.000100
3641.596041,0.000078
3642.078244,0.000162
3642.560447,0.000053
3643.042650,0.000058
3643.524852,0.000007
3644.007055,-0.000075
3644.489258,0.000159
3644.971461,0.000368
3645.453664,0.000493
3645.935867,0.000657
3646.418070,0.000656
3646.900273,0.000853
3647.382475,0.001267
3647.864678,0.001469
3648.346881,0.001441
3648.829084,0.001337
3649.311287,0.001595
3649.793490,0.001924
3650.275693,0.001475
3650.757895,0.000925
3651.240098,0.000811
3651.722301,0.000776
3652.204504,0.000535
3652.686707,0.000196
3653.168910,-0.000040
3653.651113,-0.000022
3654.133316,0.000135
3654.615518,0.000156
3655.097721,0.000069
3655.579924,0.000174
3656.062127,0.000571
3656.544330,0.000906
3657.026533,0.000676
3657.508736,0.000139
3657.990938,-0.000112
3658.473141,-0.000158
3658.955344,-0.000287
3659.437547,-0.000349
3659.919750,-0.000177
3660.401953,-0.000028
3660.884156,-0.000061
3661.366359,-0.000170
3661.848561,-0.000253
3662.330764,-0.000172
3662.812967,-0.000090
3663.295170,-0.000251
3663.777373,-0.000396
3664.259576,-0.000330
3664.741779,-0.000125
3665.223981,0.000026
3665.706184,-0.000014
3666.188387,-0.000073
3666.670590,-0.000053
3667.152793,0.000120
3667.634996,0.000422
3668.117199,0.000629
3668.599401,0.000860
3669.081604,0.001157
3669.563807,0.001081
3670.046010,0.000709
3670.528213,0.000719
3671.010416,0.001095
3671.492619,0.000972
3671.974822,0.000395
3672.457024,0.000080
3672.939227,0.000191
3673.421430,0.000484
3673.903633,0.000685
3674.385836,0.000800
3674.868039,0.001083
3675.350242,0.001566
3675.832444,0.001698
3676.314647,0.001478
3676.796850,0.001181
3677.279053,0.000737
3677.761256,0.000340
3678.243459,0.000123
3678.725662,0.000008
3679.207865,0.000074
3679.690067,0.000272
3680.172270,0.000203
3680.654473,-0.000089
3681.136676,-0.000152
3681.618879,-0.000077
3682.101082,-0.000108
3682.583285,-0.000142
3683.065487,-0.000096
3683.547690,-0.000020
3684.029893,-0.000012
3684.512096,0.000001
3684.994299,0.000091
3685.476502,0.000159
3685.958705,0.000193
3686.440908,0.000256
3686.923110,0.000377
3687.405313,0.000503
3687.887516,0.000850
3688.369719,0.001542
3688.851922,0.001850
3689.334125,0.001333
3689.816328,0.000779
3690.298530,0.000464
3690.780733,0.000335
3691.262936,0.000370
3691.745139,0.000388
3692.227342,0.000305
3692.709545,0.000198
3693.191748,0.000069
3693.673951,0.000019
3694.156153,-0.000012
3694.638356,-0.000184
3695.120559,-0.000217
3695.602762,-0.000065
3696.084965,0.000035
3696.567168,0.000084
3697.049371,0.000056
3697.531573,0.000064
3698.013776,0.000100
3698.495979,-0.000030
3698.978182,-0.000104
3699.460385,-0.000056
3699.942588,-0.000030
3700.424791,0.000117
3700.906993,0.000320
3701.389196,0.000400
3701.871399,0.000437
3702.353602,0.000480
3702.835805,0.000436
3703.318008,0.000330
3703.800211,0.000250
3704.282414,0.000138
3704.764616,0.000042
3705.246819,-0.000009
3705.729022,-0.000136
3706.211225,-0.000178
3706.693428,-0.000118
3707.175631,-0.000080
3707.657834,0.000089
3708.140036,0.000273
3708.622239,0.000358
3709.104442,0.000582
3709.586645,0.000840
3710.068848,0.000795
3710.551051,0.000612
3711.033254,0.000550
3711.515457,0.000637
3711.997659,0.000899
3712.479862,0.001081
3712.962065,0.000882
3713.444268,0.000509
3713.926471,0.000235
3714.408674,0.000181
3714.890877,0.000208
3715.373079,0.000138
3715.855282,0.000077
3716.337485,-0.000007
3716.819688,-0.000066
3717.301891,0.000018
3717.784094,0.000006
3718.266297,-0.000130
3718.748500,-0.000149
3719.230702,-0.000064
3719.712905,0.000025
3720.195108,0.000130
3720.677311,0.000216
3721.159514,0.000130
3721.641717,0.000063
3722.123920,0.000314
3722.606122,0.000553
3723.088325,0.000494
3723.570528,0.000442
3724.052731,0.000489
3724.534934,0.000504
3725.017137,0.000568
3725.499340,0.000514
3725.981542,0.000278
3726.463745,0.000414
3726.945948,0.000576
3727.428151,0.000246
3727.910354,0.000163
3728.392557,0.000325
3728.874760,0.000300
3729.356963,0.000332
3729.839165,0.000411
3730.321368,0.000467
3730.803571,0.000588
3731.285774,0.000662
3731.767977,0.000728
3732.250180,0.001051
3732.732383,0.001355
3733.214585,0.001120
3733.696788,0.000898
3734.178991,0.001012
3734.661194,0.001225
3735.143397,0.001551
3735.625600,0.001628
3736.107803,0.001147
3736.590006,0.000863
3737.072208,0.000988
3737.554411,0.000711
3738.036614,0.000240
3738.518817,0.000304
3739.001020,0.000486
3739.483223,0.000440
3739.965426,0.000521
3740.447628,0.000725
3740.929831,0.000921
3741.412034,0.001081
3741.894237,0.001080
3742.376440,0.000790
3742.858643,0.000535
3743.340846,0.000810
3743.823049,0.001374
3744.305251,0.002099
3744.787454,0.002879
3745.269657,0.002632
3745.751860,0.001697
3746.234063,0.001002
3746.716266,0.000689
3747.198469,0.000881
3747.680671,0.001100
3748.162874,0.001054
3748.645077,0.001027
3749.127280,0.001302
3749.609483,0.002081
3750.091686,0.002401
3750.573889,0.001718
3751.056092,0.001279
3751.538294,0.001254
3752.020497,0.001340
3752.502700,0.001546
3752.984903,0.001547
3753.467106,0.001186
3753.949309,0.000806
3754.431512,0.000525
3754.913714,0.000441
3755.395917,0.000557
3755.878120,0.000591
3756.360323,0.000538
3756.842526,0.000596
3757.324729,0.000632
3757.806932,0.000734
3758.289134,0.000863
3758.771337,0.000759
3759.253540,0.000796
3759.735743,0.001111
3760.217946,0.001280
3760.700149,0.001103
3761.182352,0.000660
3761.664555,0.000384
3762.146757,0.000506
3762.628960,0.000640
3763.111163,0.000593
3763.593366,0.000525
3764.075569,0.000476
3764.557772,0.000460
3765.039975,0.000551
3765.522177,0.000720
3766.004380,0.000851
3766.486583,0.000905
3766.968786,0.000855
3767.450989,0.000707
3767.933192,0.000602
3768.415395,0.000586
3768.897598,0.000578
3769.379800,0.000666
3769.862003,0.000893
3770.344206,0.001006
3770.826409,0.000814
3771.308612,0.000478
3771.790815,0.000203
3772.273018,0.000144
3772.755220,0.000187
3773.237423,0.000199
3773.719626,0.000381
3774.201829,0.000544
3774.684032,0.000418
3775.166235,0.000302
3775.648438,0.000339
3776.130641,0.000386
3776.612843,0.000336
3777.095046,0.000231
3777.577249,0.000257
3778.059452,0.000438
3778.541655,0.000633
3779.023858,0.000662
3779.506061,0.000743
3779.988263,0.000912
3780.470466,0.000621
3780.952669,0.000233
3781.434872,0.000234
3781.917075,0.000383
3782.399278,0.000449
3782.881481,0.000303
3783.363684,0.000236
3783.845886,0.000383
3784.328089,0.000368
3784.810292,0.000336
3785.292495,0.000407
3785.774698,0.000336
3786.256901,0.000221
3786.739104,0.000249
3787.221306,0.000402
3787.703509,0.000435
3788.185712,0.000318
3788.667915,0.000293
3789.150118,0.000236
3789.632321,0.000110
3790.114524,0.000156
3790.596726,0.000284
3791.078929,0.000303
3791.561132,0.000253
3792.043335,0.000255
3792.525538,0.000336
3793.007741,0.000407
3793.489944,0.000418
3793.972147,0.000461
3794.454349,0.000532
3794.936552,0.000618
3795.418755,0.000748
3795.900958,0.000801
3796.383161,0.000982
3796.865364,0.001203
3797.347567,0.001019
3797.829769,0.000832
3798.311972,0.000768
3798.794175,0.000713
3799.276378,0.000735
3799.758581,0.000681
3800.240784,0.000857
3800.722987,0.001267
3801.205190,0.001538
3801.687392,0.001756
3802.169595,0.001578
3802.651798,0.001035
3803.134001,0.000789
3803.616204,0.000758
3804.098407,0.000587
3804.580610,0.000465
3805.062812,0.000576
3805.545015,0.000698
3806.027218,0.000657
3806.509421,0.000580
3806.991624,0.000817
3807.473827,0.001110
3807.956030,0.000859
3808.438233,0.000448
3808.920435,0.000173
3809.402638,-0.000013
3809.884841,0.000004
3810.367044,0.000122
3810.849247,0.000100
3811.331450,0.000188
3811.813653,0.000454
3812.295855,0.000505
3812.778058,0.000529
3813.260261,0.000708
3813.742464,0.000649
3814.224667,0.000449
3814.706870,0.000608
3815.189073,0.000950
3815.671275,0.001194
3816.153478,0.001572
3816.635681,0.001725
3817.117884,0.001297
3817.600087,0.000976
3818.082290,0.000954
3818.564493,0.000975
3819.046696,0.000886
3819.528898,0.000826
3820.011101,0.000921
3820.493304,0.001224
3820.975507,0.001517
3821.457710,0.001406
3821.939913,0.001310
3822.422116,0.001286
3822.904318,0.000937
3823.386521,0.000704
3823.868724,0.000687
3824.350927,0.000540
3824.833130,0.000364
3825.315333,0.000388
3825.797536,0.000466
3826.279739,0.000509
3826.761941,0.000671
3827.244144,0.000783
3827.726347,0.000669
3828.208550,0.000489
3828.690753,0.000341
3829.172956,0.000359
3829.655159,0.000545
3830.137361,0.000698
3830.619564,0.000742
3831.101767,0.000719
3831.583970,0.000817
3832.066173,0.001053
3832.548376,0.000995
3833.030579,0.000767
3833.512782,0.000797
3833.994984,0.000869
3834.477187,0.000896
3834.959390,0.001156
3835.441593,0.001416
3835.923796,0.001303
3836.405999,0.001060
3836.888202,0.000910
3837.370404,0.001026
3837.852607,0.001549
3838.334810,0.001844
3838.817013,0.001477
3839.299216,0.001190
3839.781419,0.001133
3840.263622,0.001075
3840.745825,0.000919
3841.228027,0.000829
3841.710230,0.000869
3842.192433,0.000674
3842.674636,0.000396
3843.156839,0.000391
3843.639042,0.000554
3844.121245,0.000655
3844.603447,0.000492
3845.085650,0.000259
3845.567853,0.000248
3846.050056,0.000299
3846.532259,0.000292
3847.014462,0.000315
3847.496665,0.000362
3847.978867,0.000409
3848.461070,0.000427
3848.943273,0.000501
3849.425476,0.000731
3849.907679,0.000838
3850.389882,0.000704
3850.872085,0.000752
3851.354288,0.001111
3851.836490,0.001617
3852.318693,0.002321
3852.800896,0.002669
3853.283099,0.002180
3853.765302,0.001909
3854.247505,0.002365
3854.729708,0.002559
3855.211910,0.001853
3855.694113,0.001105
3856.176316,0.000608
3856.658519,0.000385
3857.140722,0.000419
3857.622925,0.000408
3858.105128,0.000196
3858.587331,-0.000027
3859.069533,-0.000132
3859.551736,0.000033
3860.033939,0.000435
3860.516142,0.000637
3860.998345,0.000561
3861.480548,0.000600
3861.962751,0.000797
3862.444953,0.000869
3862.927156,0.000762
3863.409359,0.000609
3863.891562,0.000552
3864.373765,0.000743
3864.855968,0.001154
3865.338171,0.001433
3865.820374,0.001204
3866.302576,0.000790
3866.784779,0.000611
3867.266982,0.000603
3867.749185,0.000699
3868.231388,0.000851
3868.713591,0.001027
3869.195794,0.001250
3869.677996,0.001490
3870.160199,0.001715
3870.642402,0.001710
3871.124605,0.001253
3871.606808,0.000705
3872.089011,0.000383
3872.571214,0.000359
3873.053417,0.000554
3873.535619,0.000726
3874.017822,0.000835
3874.500025,0.000903
3874.982228,0.000675
3875.464431,0.000346
3875.946634,0.000328
3876.428837,0.000343
3876.911039,0.000218
3877.393242,0.000304
3877.875445,0.000412
3878.357648,0.000304
3878.839851,0.000335
3879.322054,0.000540
3879.804257,0.000805
3880.286459,0.001196
3880.768662,0.001390
3881.250865,0.001112
3881.733068,0.000785
3882.215271,0.000594
3882.697474,0.000398
3883.179677,0.000404
3883.661880,0.000538
3884.144082,0.000574
3884.626285,0.000719
3885.108488,0.000836
3885.590691,0.000927
3886.072894,0.001259
3886.555097,0.001278
3887.037300,0.000799
3887.519502,0.000435
3888.001705,0.000334
3888.483908,0.000357
3888.966111,0.000429
3889.448314,0.000533
3889.930517,0.000637
3890.412720,0.000608
3890.894923,0.000513
3891.377125,0.000728
3891.859328,0.001087
3892.341531,0.000971
3892.823734,0.000591
3893.305937,0.000385
3893.788140,0.000316
3894.270343,0.000267
3894.752545,0.000248
3895.234748,0.000220
3895.716951,0.000272
3896.199154,0.000471
3896.681357,0.000568
3897.163560,0.000514
3897.645763,0.000438
3898.127966,0.000480
3898.610168,0.000740
3899.092371,0.000920
3899.574574,0.001028
3900.056777,0.001122
3900.538980,0.000769
3901.021183,0.000409
3901.503386,0.000643
3901.985588,0.001033
3902.467791,0.001124
3902.949994,0.001122
3903.432197,0.000995
3903.914400,0.000799
3904.396603,0.000897
3904.878806,0.000911
3905.361008,0.000490
3905.843211,0.000170
3906.325414,0.000222
3906.807617,0.000351
3907.289820,0.000261
3907.772023,0.000082
3908.254226,-0.000043
3908.736429,-0.000051
3909.218631,0.000036
3909.700834,0.000058
3910.183037,0.000078
3910.665240,0.000101
3911.147443,0.000098
3911.629646,0.000218
3912.111849,0.000394
3912.594051,0.000448
3913.076254,0.000347
3913.558457,0.000247
3914.040660,0.000284
3914.522863,0.000304
3915.005066,0.000247
3915.487269,0.000300
3915.969472,0.000512
3916.451674,0.000633
3916.933877,0.000531
3917.416080,0.000528
3917.898283,0.000701
3918.380486,0.000662
3918.862689,0.000521
3919.344892,0.000543
3919.827094,0.000555
3920.309297,0.000511
3920.791500,0.000508
3921.273703,0.000411
3921.755906,0.000198
3922.238109,0.000072
3922.720312,0.000035
3923.202515,-0.000007
3923.684717,0.000082
3924.166920,0.000286
3924.649123,0.000425
3925.131326,0.000532
3925.613529,0.000537
3926.095732,0.000337
3926.577935,0.000161
3927.060137,0.000070
3927.542340,-0.000037
3928.024543,-0.000007
3928.506746,0.000188
3928.988949,0.000423
3929.471152,0.000599
3929.953355,0.000570
3930.435558,0.000474
3930.917760,0.000386
3931.399963,0.000190
3931.882166,0.000173
3932.364369,0.000394
3932.846572,0.000486
3933.328775,0.000468
3933.810978,0.000469
3934.293180,0.000341
3934.775383,0.000140
3935.257586,0.000067
3935.739789,0.000101
3936.221992,0.000150
3936.704195,0.000188
3937.186398,0.000174
3937.668600,0.000170
3938.150803,0.000240
3938.633006,0.000202
3939.115209,0.000050
3939.597412,0.000059
3940.079615,0.000207
3940.561818,0.000288
3941.044021,0.000276
3941.526223,0.000291
3942.008426,0.000407
3942.490629,0.000505
3942.972832,0.000559
3943.455035,0.000573
3943.937238,0.000428
3944.419441,0.000197
3944.901643,0.000102
3945.383846,0.000224
3945.866049,0.000324
3946.348252,0.000269
3946.830455,0.000222
3947.312658,0.000231
3947.794861,0.000310
3948.277064,0.000340
3948.759266,0.000283
3949.241469,0.000340
3949.723672,0.000311
3950.205875,0.000206
3950.688078,0.000303
3951.170281,0.000345
3951.652484,0.000270
3952.134686,0.000298
3952.616889,0.000324
3953.099092,0.000267
3953.581295,0.000213
3954.063498,0.000214
3954.545701,0.000266
3955.027904,0.000279
3955.510107,0.000246
3955.992309,0.000196
3956.474512,0.000157
3956.956715,0.000259
3957.438918,0.000337
3957.921121,0.000254
3958.403324,0.000108
3958.885527,-0.000140
3959.367729,-0.000118
3959.849932,0.000228
3960.332135,0.000106
3960.814338,-0.000300
3961.296541,-0.000290
3961.778744,-0.000153
3962.260947,-0.000041
3962.743150,0.000196
3963.225352,0.000267
3963.707555,0.000175
3964.189758,0.000145
3964.671961,0.000083
3965.154164,-0.000014
3965.636367,-0.000019
3966.118570,0.000000
3966.600772,-0.000017
3967.082975,0.000016
3967.565178,0.000041
3968.047381,0.000157
3968.529584,0.000394
3969.011787,0.000332
3969.493990,0.000086
3969.976192,0.000007
3970.458395,0.000037
3970.940598,0.000093
3971.422801,0.000073
3971.905004,0.000033
3972.387207,0.000007
3972.869410,0.000013
3973.351613,0.000059
3973.833815,0.000073
3974.316018,0.000196
3974.798221,0.000209
3975.280424,0.000013
3975.762627,0.000007
3976.244830,0.000108
3976.727033,0.000050
3977.209235,-0.000054
3977.691438,0.000047
3978.173641,0.000192
3978.655844,0.000045
3979.138047,-0.000151
3979.620250,-0.000097
3980.102453,0.000030
3980.584656,0.000041
3981.066858,0.000141
3981.549061,0.000287
3982.031264,0.000144
3982.513467,0.000054
3982.995670,0.000199
3983.477873,0.000231
3983.960076,0.000110
3984.442278,-0.000067
3984.924481,-0.000129
3985.406684,-0.000070
3985.888887,-0.000025
3986.371090,0.000036
3986.853293,0.000076
3987.335496,0.000134
3987.817699,0.000177
3988.299901,0.000177
3988.782104,0.000246
3989.264307,0.000316
3989.746510,0.000319
3990.228713,0.000194
3990.710916,0.000096
3991.193119,0.000120
3991.675321,0.000079
3992.157524,0.000140
3992.639727,0.000228
3993.121930,0.000139
3993.604133,0.000060
3994.086336,-0.000072
3994.568539,-0.000131
3995.050742,0.000117
3995.532944,0.000429
3996.015147,0.000529
3996.497350,0.000328
3996.979553,-0.000005
3997.461756,-0.000168
3997.943959,-0.000060
3998.426162,0.000059
3998.908364,0.000014
3999.390567,0.000063
3999.872770,0.000185
4000.354973,0.000146
