XLabel,Wavenumber
YLabel,Absorbance
FileType,Absorbance
DisplayDirection,20300
PeakDirection,20312
899.790547,-0.000982
900.272750,-0.000226
900.754953,0.001195
901.237156,0.001427
901.719359,0.001397
902.201562,0.001309
902.683764,0.000260
903.165967,-0.000913
903.648170,-0.000983
904.130373,-0.000396
904.612576,0.000088
905.094779,-0.000033
905.576982,-0.000448
906.059184,0.000291
906.541387,0.001713
907.023590,0.001995
907.505793,0.000711
907.987996,-0.000756
908.470199,-0.000958
908.952402,0.000067
909.434605,0.001139
909.916807,0.000417
910.399010,-0.001087
910.881213,-0.001610
911.363416,-0.001968
911.845619,-0.001351
912.327822,-0.000180
912.810025,-0.000025
913.292227,0.000217
913.774430,0.000587
914.256633,0.000961
914.738836,0.001244
915.221039,0.000224
915.703242,-0.001471
916.185445,-0.001824
916.667648,-0.000771
917.149850,-0.000440
917.632053,-0.000683
918.114256,-0.000610
918.596459,-0.000672
919.078662,0.000302
919.560865,0.001472
920.043068,0.001087
920.525270,0.000624
921.007473,0.000661
921.489676,0.000620
921.971879,0.000500
922.454082,0.000417
922.936285,0.000785
923.418488,0.000838
923.900690,0.000309
924.382893,0.000726
924.865096,0.001555
925.347299,0.001114
925.829502,0.000372
926.311705,0.000183
926.793908,-0.000205
927.276111,-0.000193
927.758313,0.000355
928.240516,0.000328
928.722719,0.000593
929.204922,0.000918
929.687125,0.000203
930.169328,-0.000175
930.651531,-0.000148
931.133733,0.000294
931.615936,0.001630
932.098139,0.001478
932.580342,0.000386
933.062545,0.000597
933.544748,0.000235
934.026951,-0.000638
934.509154,-0.000359
934.991356,0.000082
935.473559,0.000344
935.955762,-0.000012
936.437965,-0.000669
936.920168,-0.000069
937.402371,0.000501
937.884574,0.000102
938.366776,-0.000143
938.848979,0.000305
939.331182,0.000776
939.813385,0.000009
940.295588,-0.000842
940.777791,-0.000572
941.259994,-0.000465
941.742197,-0.000460
942.224399,0.000040
942.706602,0.000293
943.188805,0.000134
943.671008,0.000001
944.153211,0.000000
944.635414,0.000114
945.117617,0.000479
945.599819,0.000689
946.082022,0.000209
946.564225,0.000020
947.046428,0.000462
947.528631,0.000285
948.010834,-0.000276
948.493037,-0.000580
948.975240,-0.000890
949.457442,-0.000892
949.939645,-0.000591
950.421848,-0.000476
950.904051,-0.000339
951.386254,-0.000094
951.868457,-0.000043
952.350660,0.000057
952.832862,0.000209
953.315065,0.000099
953.797268,-0.000003
954.279471,-0.000211
954.761674,-0.000592
955.243877,-0.000494
955.726080,0.000058
956.208282,0.000306
956.690485,0.000140
957.172688,0.000119
957.654891,0.000163
958.137094,0.000084
958.619297,0.000165
959.101500,0.000217
959.583703,0.000144
960.065905,0.000169
960.548108,0.000294
961.030311,0.000317
961.512514,-0.000027
961.994717,-0.000447
962.476920,-0.000468
962.959123,-0.000170
963.441325,-0.000025
963.923528,-0.000210
964.405731,-0.000226
964.887934,-0.000085
965.370137,-0.000177
965.852340,-0.000169
966.334543,0.000012
966.816746,-0.000000
967.298948,0.000058
967.781151,0.000400
968.263354,0.000263
968.745557,-0.000369
969.227760,-0.000267
969.709963,0.000301
970.192166,0.000335
970.674368,0.000296
971.156571,0.000381
971.638774,0.000213
972.120977,0.000226
972.603180,0.000242
973.085383,-0.000238
973.567586,-0.000333
974.049789,-0.000075
974.531991,-0.000307
975.014194,-0.000424
975.496397,-0.000167
975.978600,-0.000016
976.460803,-0.000037
976.943006,-0.000052
977.425209,0.000135
977.907411,0.000136
978.389614,-0.000167
978.871817,-0.000259
979.354020,-0.000171
979.836223,-0.000127
980.318426,0.000016
980.800629,0.000221
981.282831,0.000192
981.765034,-0.000007
982.247237,0.000015
982.729440,0.000254
983.211643,0.000357
983.693846,0.000306
984.176049,0.000155
984.658252,-0.000159
985.140454,-0.000307
985.622657,-0.000176
986.104860,0.000054
986.587063,0.000210
987.069266,0.000029
987.551469,-0.000092
988.033672,0.000227
988.515874,0.000535
988.998077,0.000391
989.480280,0.000029
989.962483,-0.000036
990.444686,-0.000050
990.926889,-0.000172
991.409092,-0.000171
991.891295,-0.000206
992.373497,-0.000107
992.855700,0.000079
993.337903,0.000026
993.820106,-0.000146
994.302309,-0.000327
994.784512,-0.000208
995.266715,0.000110
995.748917,0.000165
996.231120,0.000073
996.713323,-0.000002
997.195526,-0.000043
997.677729,-0.000115
998.159932,-0.000208
998.642135,-0.000196
999.124338,-0.000117
999.606540,-0.000035
1000.088743,-0.000025
1000.570946,-0.000121
1001.053149,-0.000175
1001.535352,-0.000101
1002.017555,-0.000108
1002.499758,-0.000104
1002.981960,0.000083
1003.464163,0.000063
1003.946366,-0.000039
1004.428569,0.000066
1004.910772,0.000046
1005.392975,-0.000082
1005.875178,-0.000041
1006.357381,0.000090
1006.839583,0.000090
1007.321786,-0.000018
1007.803989,-0.000167
1008.286192,-0.000280
1008.768395,-0.000052
1009.250598,0.000250
1009.732801,0.000233
1010.215003,0.000188
1010.697206,0.000137
1011.179409,-0.000056
1011.661612,-0.000104
1012.143815,-0.000056
1012.626018,-0.000177
1013.108221,-0.000213
1013.590423,-0.000068
1014.072626,-0.000113
1014.554829,-0.000275
1015.037032,-0.000224
1015.519235,-0.000135
1016.001438,-0.000167
1016.483641,-0.000155
1016.965844,-0.000188
1017.448046,-0.000247
1017.930249,-0.000049
1018.412452,0.000238
1018.894655,0.000290
1019.376858,0.000172
1019.859061,0.000015
1020.341264,-0.000158
1020.823466,-0.000197
1021.305669,-0.000083
1021.787872,0.000029
1022.270075,0.000115
1022.752278,0.000059
1023.234481,0.000004
1023.716684,0.000074
1024.198887,-0.000030
1024.681089,-0.000070
1025.163292,0.000149
1025.645495,0.000255
1026.127698,0.000164
1026.609901,0.000019
1027.092104,-0.000069
1027.574307,-0.000105
1028.056509,-0.000091
1028.538712,-0.000073
1029.020915,-0.000175
1029.503118,-0.000235
1029.985321,-0.000191
1030.467524,-0.000130
1030.949727,-0.000080
1031.431930,-0.000188
1031.914132,-0.000336
1032.396335,-0.000280
1032.878538,-0.000226
1033.360741,-0.000333
1033.842944,-0.000308
1034.325147,-0.000078
1034.807350,0.000053
1035.289552,-0.000021
1035.771755,-0.000118
1036.253958,-0.000138
1036.736161,-0.000199
1037.218364,-0.000255
1037.700567,-0.000221
1038.182770,-0.000152
1038.664973,-0.000082
1039.147175,-0.000106
1039.629378,-0.000095
1040.111581,0.000030
1040.593784,0.000060
1041.075987,-0.000062
1041.558190,-0.000240
1042.040393,-0.000326
1042.522595,-0.000299
1043.004798,-0.000282
1043.487001,-0.000336
1043.969204,-0.000287
1044.451407,0.000006
1044.933610,0.000122
1045.415813,-0.000064
1045.898015,-0.000135
1046.380218,-0.000125
1046.862421,-0.000189
1047.344624,-0.000212
1047.826827,-0.000190
1048.309030,-0.000182
1048.791233,-0.000159
1049.273436,-0.000135
1049.755638,-0.000112
1050.237841,-0.000027
1050.720044,-0.000046
1051.202247,-0.000194
1051.684450,-0.000182
1052.166653,-0.000148
1052.648856,-0.000259
1053.131058,-0.000256
1053.613261,-0.000153
1054.095464,-0.000137
1054.577667,-0.000147
1055.059870,-0.000109
1055.542073,-0.000093
1056.024276,-0.000140
1056.506479,-0.000178
1056.988681,-0.000193
1057.470884,-0.000122
1057.953087,-0.000018
1058.435290,-0.000091
1058.917493,-0.000142
1059.399696,-0.000024
1059.881899,-0.000046
1060.364101,-0.000205
1060.846304,-0.000157
1061.328507,0.000019
1061.810710,-0.000006
1062.292913,-0.000131
1062.775116,-0.000117
1063.257319,-0.000080
1063.739522,-0.000109
1064.221724,-0.000080
1064.703927,-0.000076
1065.186130,-0.000209
1065.668333,-0.000321
1066.150536,-0.000269
1066.632739,-0.000144
1067.114942,-0.000140
1067.597144,-0.000158
1068.079347,-0.000076
1068.561550,-0.000087
1069.043753,-0.000109
1069.525956,0.000004
1070.008159,0.000023
1070.490362,-0.000038
1070.972564,-0.000036
1071.454767,-0.000057
1071.936970,-0.000107
1072.419173,-0.000113
1072.901376,-0.000041
1073.383579,0.000063
1073.865782,0.000118
1074.347985,0.000101
1074.830187,-0.000036
1075.312390,-0.000161
1075.794593,-0.000082
1076.276796,0.000037
1076.758999,0.000022
1077.241202,-0.000061
1077.723405,-0.000144
1078.205607,-0.000199
1078.687810,-0.000191
1079.170013,-0.000166
1079.652216,-0.000105
1080.134419,0.000024
1080.616622,0.000082
1081.098825,0.000146
1081.581028,0.000235
1082.063230,0.000177
1082.545433,0.000084
1083.027636,0.000017
1083.509839,0.000049
1083.992042,0.000122
1084.474245,0.000054
1084.956448,0.000054
1085.438650,0.000022
1085.920853,-0.000114
1086.403056,-0.000014
1086.885259,0.000139
1087.367462,0.000117
1087.849665,0.000099
1088.331868,0.000095
1088.814071,0.000064
1089.296273,0.000149
1089.778476,0.000228
1090.260679,0.000134
1090.742882,0.000101
1091.225085,0.000059
1091.707288,-0.000106
1092.189491,-0.000117
1092.671693,-0.000078
1093.153896,-0.000089
1093.636099,0.000004
1094.118302,0.000062
1094.600505,0.000032
1095.082708,0.000084
1095.564911,0.000177
1096.047114,0.000161
1096.529316,0.000100
1097.011519,0.000106
1097.493722,0.000127
1097.975925,0.000083
1098.458128,0.000035
1098.940331,0.000059
1099.422534,0.000027
1099.904736,-0.000010
1100.386939,0.000097
1100.869142,0.000154
1101.351345,0.000113
1101.833548,0.000039
1102.315751,-0.000083
1102.797954,-0.000097
1103.280156,-0.000022
1103.762359,-0.000034
1104.244562,-0.000084
1104.726765,-0.000051
1105.208968,-0.000045
1105.691171,-0.000062
1106.173374,0.000024
1106.655577,0.000014
1107.137779,-0.000083
1107.619982,-0.000041
1108.102185,0.000065
1108.584388,0.000081
1109.066591,-0.000011
1109.548794,-0.000042
1110.030997,0.000004
1110.513199,0.000005
1110.995402,0.000024
1111.477605,0.000062
1111.959808,0.000045
1112.442011,-0.000015
1112.924214,-0.000021
1113.406417,-0.000021
1113.888620,-0.000063
1114.370822,0.000011
1114.853025,0.000087
1115.335228,0.000065
1115.817431,0.000099
1116.299634,0.000097
1116.781837,-0.000026
1117.264040,-0.000111
1117.746242,-0.000109
1118.228445,-0.000120
1118.710648,-0.000150
1119.192851,-0.000136
1119.675054,-0.000029
1120.157257,0.000066
1120.639460,0.000031
1121.121663,0.000016
1121.603865,0.000041
1122.086068,0.000038
1122.568271,0.000034
1123.050474,-0.000042
1123.532677,-0.000044
1124.014880,0.000028
1124.497083,-0.000050
1124.979285,-0.000077
1125.461488,0.000019
1125.943691,-0.000003
1126.425894,-0.000057
1126.908097,-0.000001
1127.390300,0.000051
1127.872503,0.000036
1128.354706,0.000076
1128.836908,0.000162
1129.319111,0.000119
1129.801314,0.000083
1130.283517,0.000113
1130.765720,0.000022
1131.247923,-0.000004
1131.730126,0.000094
1132.212328,0.000152
1132.694531,0.000171
1133.176734,0.000089
1133.658937,0.000049
1134.141140,0.000093
1134.623343,0.000078
1135.105546,0.000120
1135.587748,0.000154
1136.069951,0.000142
1136.552154,0.000199
1137.034357,0.000211
1137.516560,0.000171
1137.998763,0.000116
1138.480966,0.000047
1138.963169,0.000048
1139.445371,0.000092
1139.927574,0.000070
1140.409777,0.000024
1140.891980,0.000044
1141.374183,0.000083
1141.856386,0.000099
1142.338589,0.000106
1142.820791,0.000087
1143.302994,0.000040
1143.785197,0.000016
1144.267400,0.000045
1144.749603,0.000064
1145.231806,0.000009
1145.714009,-0.000092
1146.196212,-0.000122
1146.678414,-0.000065
1147.160617,-0.000025
1147.642820,0.000045
1148.125023,0.000103
1148.607226,0.000057
1149.089429,0.000015
1149.571632,0.000028
1150.053834,0.000057
1150.536037,0.000029
1151.018240,-0.000057
1151.500443,-0.000077
1151.982646,-0.000035
1152.464849,-0.000002
1152.947052,-0.000009
1153.429255,-0.000030
1153.911457,0.000022
1154.393660,0.000082
1154.875863,0.000071
1155.358066,0.000010
1155.840269,-0.000072
1156.322472,-0.000073
1156.804675,-0.000074
1157.286877,-0.000167
1157.769080,-0.000136
1158.251283,-0.000049
1158.733486,-0.000007
1159.215689,0.000129
1159.697892,0.000181
1160.180095,0.000091
1160.662298,0.000015
1161.144500,-0.000039
1161.626703,-0.000007
1162.108906,0.000079
1162.591109,0.000089
1163.073312,0.000098
1163.555515,0.000201
1164.037718,0.000153
1164.519920,-0.000102
1165.002123,-0.000124
1165.484326,0.000062
1165.966529,0.000095
1166.448732,0.000038
1166.930935,0.000051
1167.413138,0.000104
1167.895340,0.000111
1168.377543,0.000122
1168.859746,0.000184
1169.341949,0.000190
1169.824152,0.000133
1170.306355,0.000112
1170.788558,0.000134
1171.270761,0.000143
1171.752963,0.000098
1172.235166,0.000069
1172.717369,0.000093
1173.199572,0.000038
1173.681775,-0.000021
1174.163978,0.000070
1174.646181,0.000088
1175.128383,-0.000054
1175.610586,-0.000130
1176.092789,-0.000078
1176.574992,0.000024
1177.057195,0.000097
1177.539398,0.000069
1178.021601,0.000028
1178.503804,0.000069
1178.986006,0.000049
1179.468209,0.000029
1179.950412,0.000167
1180.432615,0.000240
1180.914818,0.000178
1181.397021,0.000157
1181.879224,0.000176
1182.361426,0.000179
1182.843629,0.000150
1183.325832,0.000124
1183.808035,0.000122
1184.290238,0.000123
1184.772441,0.000165
1185.254644,0.000217
1185.736847,0.000155
1186.219049,0.000077
1186.701252,0.000129
1187.183455,0.000086
1187.665658,-0.000091
1188.147861,-0.000077
1188.630064,0.000057
1189.112267,0.000090
1189.594469,0.000075
1190.076672,0.000120
1190.558875,0.000264
1191.041078,0.000343
1191.523281,0.000250
1192.005484,0.000218
1192.487687,0.000259
1192.969889,0.000204
1193.452092,0.000159
1193.934295,0.000135
1194.416498,0.000072
1194.898701,0.000133
1195.380904,0.000225
1195.863107,0.000150
1196.345310,0.000002
1196.827512,-0.000068
1197.309715,0.000035
1197.791918,0.000149
1198.274121,0.000088
1198.756324,-0.000026
1199.238527,-0.000123
1199.720730,-0.000172
1200.202932,-0.000184
1200.685135,-0.000249
1201.167338,-0.000305
1201.649541,-0.000256
1202.131744,-0.000119
1202.613947,-0.000035
1203.096150,-0.000087
1203.578353,-0.000128
1204.060555,-0.000081
1204.542758,-0.000071
1205.024961,-0.000126
1205.507164,-0.000109
1205.989367,-0.000075
1206.471570,-0.000136
1206.953773,-0.000145
1207.435975,-0.000074
1207.918178,-0.000076
1208.400381,-0.000109
1208.882584,-0.000110
1209.364787,-0.000106
1209.846990,-0.000075
1210.329193,-0.000046
1210.811396,-0.000048
1211.293598,-0.000040
1211.775801,-0.000029
1212.258004,-0.000001
1212.740207,0.000061
1213.222410,0.000089
1213.704613,0.000002
1214.186816,-0.000111
1214.669018,-0.000128
1215.151221,-0.000094
1215.633424,0.000018
1216.115627,0.000190
1216.597830,0.000238
1217.080033,0.000253
1217.562236,0.000380
1218.044439,0.000440
1218.526641,0.000337
1219.008844,0.000238
1219.491047,0.000237
1219.973250,0.000283
1220.455453,0.000334
1220.937656,0.000429
1221.419859,0.000622
1221.902061,0.000765
1222.384264,0.000821
1222.866467,0.000923
1223.348670,0.000900
1223.830873,0.000765
1224.313076,0.000768
1224.795279,0.000783
1225.277481,0.000769
1225.759684,0.000892
1226.241887,0.001103
1226.724090,0.001299
1227.206293,0.001482
1227.688496,0.001705
1228.170699,0.001852
1228.652902,0.001799
1229.135104,0.001784
1229.617307,0.001905
1230.099510,0.001982
1230.581713,0.002078
1231.063916,0.002347
1231.546119,0.002712
1232.028322,0.002996
1232.510524,0.003294
1232.992727,0.003660
1233.474930,0.003926
1233.957133,0.004075
1234.439336,0.004110
1234.921539,0.004177
1235.403742,0.004461
1235.885945,0.004785
1236.368147,0.005014
1236.850350,0.005286
1237.332553,0.005668
1237.814756,0.006051
1238.296959,0.006508
1238.779162,0.006995
1239.261365,0.007196
1239.743567,0.007319
1240.225770,0.007629
1240.707973,0.007949
1241.190176,0.008302
1241.672379,0.008784
1242.154582,0.009308
1242.636785,0.009794
1243.118988,0.010295
1243.601190,0.010988
1244.083393,0.011764
1244.565596,0.012264
1245.047799,0.012551
1245.530002,0.012973
1246.012205,0.013566
1246.494408,0.014163
1246.976610,0.014732
1247.458813,0.015292
1247.941016,0.015856
1248.423219,0.016445
1248.905422,0.017068
1249.387625,0.017739
1249.869828,0.018363
1250.352031,0.018782
1250.834233,0.019050
1251.316436,0.019327
1251.798639,0.019637
1252.280842,0.019924
1252.763045,0.020158
1253.245248,0.020192
1253.727451,0.019912
1254.209653,0.019412
1254.691856,0.018840
1255.174059,0.018341
1255.656262,0.017909
1256.138465,0.017386
1256.620668,0.016745
1257.102871,0.016142
1257.585073,0.015879
1258.067276,0.016085
1258.549479,0.016249
1259.031682,0.016090
1259.513885,0.016178
1259.996088,0.016680
1260.478291,0.017284
1260.960494,0.017541
1261.442696,0.017450
1261.924899,0.018098
1262.407102,0.020254
1262.889305,0.024546
1263.371508,0.029157
1263.853711,0.029035
1264.335914,0.024698
1264.818116,0.020816
1265.300319,0.018179
1265.782522,0.016485
1266.264725,0.015925
1266.746928,0.015966
1267.229131,0.016317
1267.711334,0.016818
1268.193537,0.017399
1268.675739,0.018040
1269.157942,0.018736
1269.640145,0.019468
1270.122348,0.019931
1270.604551,0.020181
1271.086754,0.020446
1271.568957,0.020558
1272.051159,0.020474
1272.533362,0.020319
1273.015565,0.020106
1273.497768,0.019752
1273.979971,0.019180
1274.462174,0.018525
1274.944377,0.017884
1275.426580,0.017214
1275.908782,0.016586
1276.390985,0.015988
1276.873188,0.015330
1277.355391,0.014656
1277.837594,0.014028
1278.319797,0.013474
1278.802000,0.013020
1279.284202,0.012599
1279.766405,0.012136
1280.248608,0.011695
1280.730811,0.011396
1281.213014,0.011253
1281.695217,0.010993
1282.177420,0.010435
1282.659622,0.009790
1283.141825,0.009248
1283.624028,0.008803
1284.106231,0.008311
1284.588434,0.007852
1285.070637,0.007603
1285.552840,0.007322
1286.035043,0.006935
1286.517245,0.006620
1286.999448,0.006327
1287.481651,0.005983
1287.963854,0.005540
1288.446057,0.005038
1288.928260,0.004634
1289.410463,0.004321
1289.892665,0.004000
1290.374868,0.003713
1290.857071,0.003531
1291.339274,0.003417
1291.821477,0.003294
1292.303680,0.003122
1292.785883,0.002925
1293.268086,0.002680
1293.750288,0.002380
1294.232491,0.002080
1294.714694,0.001837
1295.196897,0.001669
1295.679100,0.001536
1296.161303,0.001401
1296.643506,0.001207
1297.125708,0.001072
1297.607911,0.001064
1298.090114,0.000977
1298.572317,0.000844
1299.054520,0.000710
1299.536723,0.000569
1300.018926,0.000548
1300.501129,0.000533
1300.983331,0.000491
1301.465534,0.000484
1301.947737,0.000463
1302.429940,0.000457
1302.912143,0.000391
1303.394346,0.000236
1303.876549,0.000140
1304.358751,0.000138
1304.840954,0.000079
1305.323157,-0.000052
1305.805360,-0.000121
1306.287563,-0.000187
1306.769766,-0.000165
1307.251969,0.000010
1307.734172,0.000099
1308.216374,0.000224
1308.698577,0.000337
1309.180780,0.000257
1309.662983,0.000253
1310.145186,0.000232
1310.627389,0.000082
1311.109592,0.000102
1311.591794,0.000170
1312.073997,0.000150
1312.556200,0.000246
1313.038403,0.000332
1313.520606,0.000183
1314.002809,0.000023
1314.485012,0.000026
1314.967214,0.000043
1315.449417,0.000139
1315.931620,0.000269
1316.413823,0.000166
1316.896026,0.000006
1317.378229,-0.000047
1317.860432,-0.000125
1318.342635,-0.000129
1318.824837,-0.000043
1319.307040,-0.000058
1319.789243,-0.000060
1320.271446,0.000097
1320.753649,0.000250
1321.235852,0.000299
1321.718055,0.000216
1322.200257,0.000049
1322.682460,0.000009
1323.164663,0.000075
1323.646866,0.000118
1324.129069,0.000235
1324.611272,0.000405
1325.093475,0.000528
1325.575678,0.000665
1326.057880,0.000625
1326.540083,0.000360
1327.022286,0.000264
1327.504489,0.000237
1327.986692,0.000198
1328.468895,0.000373
1328.951098,0.000416
1329.433300,0.000185
1329.915503,0.000063
1330.397706,0.000153
1330.879909,0.000330
1331.362112,0.000463
1331.844315,0.000430
1332.326518,0.000299
1332.808721,0.000289
1333.290923,0.000339
1333.773126,0.000294
1334.255329,0.000232
1334.737532,0.000267
1335.219735,0.000411
1335.701938,0.000446
1336.184141,0.000391
1336.666343,0.000423
1337.148546,0.000407
1337.630749,0.000401
1338.112952,0.000451
1338.595155,0.000471
1339.077358,0.000548
1339.559561,0.000593
1340.041764,0.000585
1340.523966,0.000617
1341.006169,0.000575
1341.488372,0.000483
1341.970575,0.000476
1342.452778,0.000459
1342.934981,0.000326
1343.417184,0.000217
1343.899386,0.000262
1344.381589,0.000367
1344.863792,0.000379
1345.345995,0.000367
1345.828198,0.000407
1346.310401,0.000282
1346.792604,0.000137
1347.274806,0.000229
1347.757009,0.000191
1348.239212,0.000041
1348.721415,0.000130
1349.203618,0.000238
1349.685821,0.000263
1350.168024,0.000295
1350.650227,0.000286
1351.132429,0.000244
1351.614632,0.000028
1352.096835,-0.000153
1352.579038,0.000024
1353.061241,0.000108
1353.543444,-0.000053
1354.025647,-0.000083
1354.507849,-0.000047
1354.990052,-0.000059
1355.472255,-0.000077
1355.954458,-0.000045
1356.436661,0.000052
1356.918864,0.000047
1357.401067,0.000021
1357.883270,0.000124
1358.365472,0.000174
1358.847675,0.000089
1359.329878,0.000029
1359.812081,-0.000020
1360.294284,-0.000098
1360.776487,0.000025
1361.258690,0.000146
1361.740892,-0.000056
1362.223095,-0.000145
1362.705298,-0.000078
1363.187501,-0.000108
1363.669704,0.000001
1364.151907,0.000093
1364.634110,0.000036
1365.116313,0.000068
1365.598515,0.000023
1366.080718,-0.000102
1366.562921,-0.000011
1367.045124,0.000096
1367.527327,0.000154
1368.009530,0.000341
1368.491733,0.000380
1368.973935,0.000232
1369.456138,0.000196
1369.938341,0.000237
1370.420544,0.000246
1370.902747,0.000237
1371.384950,0.000157
1371.867153,0.000069
1372.349355,0.000142
1372.831558,0.000228
1373.313761,0.000229
1373.795964,0.000309
1374.278167,0.000381
1374.760370,0.000336
1375.242573,0.000284
1375.724776,0.000277
1376.206978,0.000262
1376.689181,0.000314
1377.171384,0.000422
1377.653587,0.000404
1378.135790,0.000353
1378.617993,0.000396
1379.100196,0.000537
1379.582398,0.000673
1380.064601,0.000660
1380.546804,0.000612
1381.029007,0.000620
1381.511210,0.000695
1381.993413,0.000804
1382.475616,0.000813
1382.957819,0.000712
1383.440021,0.000718
1383.922224,0.000939
1384.404427,0.001068
1384.886630,0.001085
1385.368833,0.001138
1385.851036,0.001126
1386.333239,0.001148
1386.815441,0.001191
1387.297644,0.001216
1387.779847,0.001359
1388.262050,0.001526
1388.744253,0.001556
1389.226456,0.001405
1389.708659,0.001332
1390.190862,0.001492
1390.673064,0.001637
1391.155267,0.001626
1391.637470,0.001524
1392.119673,0.001543
1392.601876,0.001705
1393.084079,0.001767
1393.566282,0.001825
1394.048484,0.002032
1394.530687,0.002130
1395.012890,0.002041
1395.495093,0.001956
1395.977296,0.001809
1396.459499,0.001654
1396.941702,0.001683
1397.423905,0.001814
1397.906107,0.001824
1398.388310,0.001758
1398.870513,0.001759
1399.352716,0.001750
1399.834919,0.001789
1400.317122,0.001855
1400.799325,0.001821
1401.281527,0.001845
1401.763730,0.001903
1402.245933,0.001907
1402.728136,0.001940
1403.210339,0.001959
1403.692542,0.002075
1404.174745,0.002206
1404.656947,0.002051
1405.139150,0.001866
1405.621353,0.001778
1406.103556,0.001605
1406.585759,0.001550
1407.067962,0.001649
1407.550165,0.001757
1408.032368,0.001827
1408.514570,0.001733
1408.996773,0.001681
1409.478976,0.001780
1409.961179,0.001751
1410.443382,0.001653
1410.925585,0.001628
1411.407788,0.001651
1411.889990,0.001769
1412.372193,0.001878
1412.854396,0.001789
1413.336599,0.001600
1413.818802,0.001523
1414.301005,0.001514
1414.783208,0.001485
1415.265411,0.001453
1415.747613,0.001517
1416.229816,0.001642
1416.712019,0.001617
1417.194222,0.001683
1417.676425,0.001883
1418.158628,0.001786
1418.640831,0.001647
1419.123033,0.001789
1419.605236,0.001832
1420.087439,0.001573
1420.569642,0.001443
1421.051845,0.001506
1421.534048,0.001523
1422.016251,0.001551
1422.498454,0.001590
1422.980656,0.001510
1423.462859,0.001425
1423.945062,0.001368
1424.427265,0.001363
1424.909468,0.001409
1425.391671,0.001362
1425.873874,0.001290
1426.356076,0.001384
1426.838279,0.001396
1427.320482,0.001124
1427.802685,0.000975
1428.284888,0.001041
1428.767091,0.001067
1429.249294,0.001112
1429.731497,0.001214
1430.213699,0.001266
1430.695902,0.001250
1431.178105,0.001259
1431.660308,0.001237
1432.142511,0.001140
1432.624714,0.001145
1433.106917,0.001203
1433.589119,0.001187
1434.071322,0.001154
1434.553525,0.001153
1435.035728,0.001233
1435.517931,0.001353
1436.000134,0.001416
1436.482337,0.001360
1436.964539,0.001052
1437.446742,0.000792
1437.928945,0.000866
1438.411148,0.000951
1438.893351,0.000882
1439.375554,0.000863
1439.857757,0.000852
1440.339960,0.000832
1440.822162,0.000859
1441.304365,0.000813
1441.786568,0.000741
1442.268771,0.000694
1442.750974,0.000659
1443.233177,0.000709
1443.715380,0.000778
1444.197582,0.000695
1444.679785,0.000536
1445.161988,0.000499
1445.644191,0.000538
1446.126394,0.000626
1446.608597,0.000729
1447.090800,0.000708
1447.573003,0.000719
1448.055205,0.000819
1448.537408,0.000819
1449.019611,0.000788
1449.501814,0.000730
1449.984017,0.000611
1450.466220,0.000557
1450.948423,0.000543
1451.430625,0.000489
1451.912828,0.000415
1452.395031,0.000401
1452.877234,0.000461
1453.359437,0.000435
1453.841640,0.000383
1454.323843,0.000455
1454.806046,0.000474
1455.288248,0.000484
1455.770451,0.000698
1456.252654,0.000893
1456.734857,0.000835
1457.217060,0.000653
1457.699263,0.000635
1458.181466,0.000696
1458.663668,0.000663
1459.145871,0.000570
1459.628074,0.000544
1460.110277,0.000576
1460.592480,0.000552
1461.074683,0.000487
1461.556886,0.000524
1462.039089,0.000566
1462.521291,0.000528
1463.003494,0.000582
1463.485697,0.000683
1463.967900,0.000679
1464.450103,0.000627
1464.932306,0.000554
1465.414509,0.000499
1465.896711,0.000472
1466.378914,0.000374
1466.861117,0.000261
1467.343320,0.000248
1467.825523,0.000313
1468.307726,0.000393
1468.789929,0.000375
1469.272131,0.000250
1469.754334,0.000187
1470.236537,0.000216
1470.718740,0.000198
1471.200943,0.000201
1471.683146,0.000329
1472.165349,0.000375
1472.647552,0.000353
1473.129754,0.000449
1473.611957,0.000484
1474.094160,0.000391
1474.576363,0.000292
1475.058566,0.000186
1475.540769,0.000121
1476.022972,0.000100
1476.505174,0.000067
1476.987377,0.000051
1477.469580,0.000064
1477.951783,0.000041
1478.433986,0.000014
1478.916189,0.000010
1479.398392,-0.000004
1479.880595,0.000005
1480.362797,0.000093
1480.845000,0.000217
1481.327203,0.000168
1481.809406,0.000054
1482.291609,0.000084
1482.773812,0.000027
1483.256015,-0.000063
1483.738217,0.000022
1484.220420,0.000111
1484.702623,0.000070
1485.184826,0.000016
1485.667029,0.000064
1486.149232,0.000116
1486.631435,0.000098
1487.113638,0.000111
1487.595840,0.000077
1488.078043,-0.000036
1488.560246,-0.000082
1489.042449,-0.000005
1489.524652,0.000103
1490.006855,0.000178
1490.489058,0.000127
1490.971260,-0.000042
1491.453463,-0.000070
1491.935666,-0.000023
1492.417869,-0.000046
1492.900072,-0.000022
1493.382275,0.000027
1493.864478,0.000081
1494.346680,0.000118
1494.828883,0.000079
1495.311086,0.000092
1495.793289,0.000228
1496.275492,0.000310
1496.757695,0.000179
1497.239898,0.000090
1497.722101,0.000135
1498.204303,0.000160
1498.686506,0.000181
1499.168709,0.000285
1499.650912,0.000338
1500.133115,0.000276
1500.615318,0.000277
1501.097521,0.000398
1501.579723,0.000443
1502.061926,0.000399
1502.544129,0.000397
1503.026332,0.000438
1503.508535,0.000467
1503.990738,0.000457
1504.472941,0.000505
1504.955144,0.000699
1505.437346,0.000850
1505.919549,0.000768
1506.401752,0.000793
1506.883955,0.000962
1507.366158,0.000918
1507.848361,0.000782
1508.330564,0.000731
1508.812766,0.000749
1509.294969,0.000815
1509.777172,0.000788
1510.259375,0.000695
1510.741578,0.000673
1511.223781,0.000738
1511.705984,0.000831
1512.188187,0.000841
1512.670389,0.000756
1513.152592,0.000679
1513.634795,0.000650
1514.116998,0.000745
1514.599201,0.000913
1515.081404,0.000974
1515.563607,0.000926
1516.045809,0.000884
1516.528012,0.000877
1517.010215,0.000864
1517.492418,0.000866
1517.974621,0.000906
1518.456824,0.000842
1518.939027,0.000777
1519.421230,0.000857
1519.903432,0.000900
1520.385635,0.000966
1520.867838,0.001176
1521.350041,0.001214
1521.832244,0.001047
1522.314447,0.000976
1522.796650,0.000912
1523.278852,0.000863
1523.761055,0.000942
1524.243258,0.001031
1524.725461,0.001023
1525.207664,0.000993
1525.689867,0.001010
1526.172070,0.000986
1526.654272,0.000927
1527.136475,0.000933
1527.618678,0.000947
1528.100881,0.000951
1528.583084,0.000984
1529.065287,0.000974
1529.547490,0.000947
1530.029693,0.000913
1530.511895,0.000828
1530.994098,0.000801
1531.476301,0.000906
1531.958504,0.001015
1532.440707,0.001039
1532.922910,0.001029
1533.405113,0.001032
1533.887315,0.001042
1534.369518,0.001037
1534.851721,0.001020
1535.333924,0.001002
1535.816127,0.001031
1536.298330,0.001142
1536.780533,0.001255
1537.262736,0.001266
1537.744938,0.001237
1538.227141,0.001366
1538.709344,0.001585
1539.191547,0.001675
1539.673750,0.001664
1540.155953,0.001593
1540.638156,0.001574
1541.120358,0.001660
1541.602561,0.001682
1542.084764,0.001733
1542.566967,0.001772
1543.049170,0.001710
1543.531373,0.001765
1544.013576,0.001872
1544.495779,0.001900
1544.977981,0.001946
1545.460184,0.001974
1545.942387,0.002014
1546.424590,0.002114
1546.906793,0.002217
1547.388996,0.002320
1547.871199,0.002430
1548.353401,0.002563
1548.835604,0.002667
1549.317807,0.002806
1549.800010,0.003021
1550.282213,0.003119
1550.764416,0.003164
1551.246619,0.003314
1551.728822,0.003589
1552.211024,0.003826
1552.693227,0.003874
1553.175430,0.004031
1553.657633,0.004436
1554.139836,0.004827
1554.622039,0.005060
1555.104242,0.005213
1555.586444,0.005394
1556.068647,0.005675
1556.550850,0.006053
1557.033053,0.006444
1557.515256,0.006968
1557.997459,0.007683
1558.479662,0.008248
1558.961864,0.008561
1559.444067,0.009035
1559.926270,0.009700
1560.408473,0.010208
1560.890676,0.010596
1561.372879,0.011100
1561.855082,0.011807
1562.337285,0.012581
1562.819487,0.013244
1563.301690,0.014020
1563.783893,0.014966
1564.266096,0.015983
1564.748299,0.017098
1565.230502,0.018143
1565.712705,0.019107
1566.194907,0.020283
1566.677110,0.021650
1567.159313,0.022981
1567.641516,0.024264
1568.123719,0.025627
1568.605922,0.027305
1569.088125,0.029274
1569.570328,0.031196
1570.052530,0.032906
1570.534733,0.034691
1571.016936,0.037015
1571.499139,0.039553
1571.981342,0.041525
1572.463545,0.043371
1572.945748,0.046060
1573.427950,0.049202
1573.910153,0.051903
1574.392356,0.054226
1574.874559,0.056972
1575.356762,0.060841
1575.838965,0.065192
1576.321168,0.068957
1576.803371,0.072407
1577.285573,0.076299
1577.767776,0.080592
1578.249979,0.084604
1578.732182,0.088072
1579.214385,0.092135
1579.696588,0.097614
1580.178791,0.103291
1580.660993,0.107659
1581.143196,0.112067
1581.625399,0.118403
1582.107602,0.125018
1582.589805,0.129475
1583.072008,0.132859
1583.554211,0.138210
1584.036413,0.146151
1584.518616,0.153705
1585.000819,0.158465
1585.483022,0.162982
1585.965225,0.171388
1586.447428,0.181482
1586.929631,0.186873
1587.411834,0.188504
1587.894036,0.193806
1588.376239,0.204446
1588.858442,0.213853
1589.340645,0.217969
1589.822848,0.222898
1590.305051,0.235498
1590.787254,0.249074
1591.269456,0.250791
1591.751659,0.248023
1592.233862,0.258058
1592.716065,0.272852
1593.198268,0.274082
1593.680471,0.271649
1594.162674,0.283731
1594.644877,0.301465
1595.127079,0.302329
1595.609282,0.291905
1596.091485,0.295096
1596.573688,0.308626
1597.055891,0.306259
1597.538094,0.296221
1598.020297,0.306181
1598.502499,0.327065
1598.984702,0.327101
1599.466905,0.309582
1599.949108,0.306070
1600.431311,0.315854
1600.913514,0.310166
1601.395717,0.298446
1601.877920,0.311112
1602.360122,0.330717
1602.842325,0.316929
1603.324528,0.288953
1603.806731,0.288487
1604.288934,0.301491
1604.771137,0.295089
1605.253340,0.292385
1605.735542,0.313976
1606.217745,0.309901
1606.699948,0.268581
1607.182151,0.252093
1607.664354,0.267910
1608.146557,0.288789
1608.628760,0.293301
1609.110963,0.265677
1609.593165,0.239816
1610.075368,0.234466
1610.557571,0.242456
1611.039774,0.260843
1611.521977,0.247675
1612.004180,0.205303
1612.486383,0.197250
1612.968585,0.224399
1613.450788,0.218265
1613.932991,0.182312
1614.415194,0.184949
1614.897397,0.197826
1615.379600,0.177968
1615.861803,0.163098
1616.344005,0.151962
1616.826208,0.132475
1617.308411,0.131893
1617.790614,0.145628
1618.272817,0.165807
1618.755020,0.191855
1619.237223,0.222274
1619.719426,0.246894
1620.201628,0.261529
1620.683831,0.286082
1621.166034,0.313257
1621.648237,0.321828
1622.130440,0.331590
1622.612643,0.359254
1623.094846,0.377854
1623.577048,0.381502
1624.059251,0.400522
1624.541454,0.411425
1625.023657,0.397016
1625.505860,0.405639
1625.988063,0.432989
1626.470266,0.420283
1626.952469,0.414856
1627.434671,0.446041
1627.916874,0.436196
1628.399077,0.417899
1628.881280,0.443815
1629.363483,0.437026
1629.845686,0.409940
1630.327889,0.427412
1630.810091,0.423605
1631.292294,0.392022
1631.774497,0.401806
1632.256700,0.395845
1632.738903,0.363235
1633.221106,0.369790
1633.703309,0.361709
1634.185512,0.328570
1634.667714,0.331695
1635.149917,0.321346
1635.632120,0.294352
1636.114323,0.300028
1636.596526,0.275935
1637.078729,0.250735
1637.560932,0.251935
1638.043134,0.232496
1638.525337,0.222294
1639.007540,0.225326
1639.489743,0.204662
1639.971946,0.198136
1640.454149,0.190864
1640.936352,0.165979
1641.418555,0.159749
1641.900757,0.146906
1642.382960,0.131370
1642.865163,0.128521
1643.347366,0.114162
1643.829569,0.106401
1644.311772,0.101809
1644.793975,0.089369
1645.276177,0.086822
1645.758380,0.081111
1646.240583,0.071285
1646.722786,0.064070
1647.204989,0.054604
1647.687192,0.050678
1648.169395,0.046762
1648.651597,0.042083
1649.133800,0.038846
1649.616003,0.034199
1650.098206,0.031649
1650.580409,0.028868
1651.062612,0.025994
1651.544815,0.024261
1652.027018,0.021354
1652.509220,0.019101
1652.991423,0.016932
1653.473626,0.014788
1653.955829,0.014070
1654.438032,0.013638
1654.920235,0.012990
1655.402438,0.012171
1655.884640,0.011623
1656.366843,0.011098
1656.849046,0.010612
1657.331249,0.010137
1657.813452,0.009691
1658.295655,0.009370
1658.777858,0.009015
1659.260061,0.008770
1659.742263,0.008529
1660.224466,0.008345
1660.706669,0.008214
1661.188872,0.008039
1661.671075,0.007917
1662.153278,0.007776
1662.635481,0.007540
1663.117683,0.007296
1663.599886,0.007238
1664.082089,0.007190
1664.564292,0.007140
1665.046495,0.007150
1665.528698,0.007057
1666.010901,0.006973
1666.493104,0.006998
1666.975306,0.007077
1667.457509,0.007119
1667.939712,0.007127
1668.421915,0.007175
1668.904118,0.007247
1669.386321,0.007339
1669.868524,0.007318
1670.350726,0.007250
1670.832929,0.007413
1671.315132,0.007651
1671.797335,0.007669
1672.279538,0.007666
1672.761741,0.007805
1673.243944,0.008024
1673.726146,0.008271
1674.208349,0.008512
1674.690552,0.008717
1675.172755,0.008797
1675.654958,0.008857
1676.137161,0.009087
1676.619364,0.009359
1677.101567,0.009554
1677.583769,0.009727
1678.065972,0.009990
1678.548175,0.010287
1679.030378,0.010446
1679.512581,0.010561
1679.994784,0.010852
1680.476987,0.011141
1680.959189,0.011300
1681.441392,0.011480
1681.923595,0.011641
1682.405798,0.011739
1682.888001,0.011872
1683.370204,0.012120
1683.852407,0.012315
1684.334610,0.012445
1684.816812,0.012521
1685.299015,0.012119
1685.781218,0.011656
1686.263421,0.011483
1686.745624,0.011441
1687.227827,0.011381
1687.710030,0.011271
1688.192232,0.011091
1688.674435,0.010816
1689.156638,0.010569
1689.638841,0.010311
1690.121044,0.009963
1690.603247,0.009723
1691.085450,0.009538
1691.567653,0.009205
1692.049855,0.008809
1692.532058,0.008415
1693.014261,0.007972
1693.496464,0.007505
1693.978667,0.007112
1694.460870,0.006822
1694.943073,0.006699
1695.425275,0.006969
1695.907478,0.007549
1696.389681,0.008238
1696.871884,0.009358
1697.354087,0.011307
1697.836290,0.014204
1698.318493,0.017357
1698.800696,0.020086
1699.282898,0.020855
1699.765101,0.016825
1700.247304,0.009447
1700.729507,0.005773
1701.211710,0.005420
1701.693913,0.005590
1702.176116,0.005623
1702.658318,0.005346
1703.140521,0.005330
1703.622724,0.005602
1704.104927,0.006023
1704.587130,0.006665
1705.069333,0.007320
1705.551536,0.007916
1706.033738,0.008534
1706.515941,0.009197
1706.998144,0.009753
1707.480347,0.010248
1707.962550,0.010802
1708.444753,0.011289
1708.926956,0.011742
1709.409159,0.012231
1709.891361,0.012701
1710.373564,0.013152
1710.855767,0.013550
1711.337970,0.013862
1711.820173,0.014026
1712.302376,0.014043
1712.784579,0.014097
1713.266781,0.014237
1713.748984,0.014339
1714.231187,0.014360
1714.713390,0.014321
1715.195593,0.014218
1715.677796,0.014077
1716.159999,0.013928
1716.642202,0.013828
1717.124404,0.013830
1717.606607,0.013701
1718.088810,0.013371
1718.571013,0.013054
1719.053216,0.012778
1719.535419,0.012601
1720.017622,0.012405
1720.499824,0.012143
1720.982027,0.011930
1721.464230,0.011737
1721.946433,0.011466
1722.428636,0.011229
1722.910839,0.011203
1723.393042,0.011145
1723.875245,0.010838
1724.357447,0.010557
1724.839650,0.010392
1725.321853,0.010205
1725.804056,0.010038
1726.286259,0.009921
1726.768462,0.009828
1727.250665,0.009786
1727.732867,0.009774
1728.215070,0.009804
1728.697273,0.009826
1729.179476,0.009765
1729.661679,0.009748
1730.143882,0.009808
1730.626085,0.009815
1731.108288,0.009822
1731.590490,0.009947
1732.072693,0.010168
1732.554896,0.010391
1733.037099,0.010682
1733.519302,0.011078
1734.001505,0.011329
1734.483708,0.011483
1734.965910,0.011634
1735.448113,0.011828
1735.930316,0.012140
1736.412519,0.012401
1736.894722,0.012615
1737.376925,0.012914
1737.859128,0.013203
1738.341330,0.013509
1738.823533,0.013838
1739.305736,0.014047
1739.787939,0.014128
1740.270142,0.014152
1740.752345,0.014205
1741.234548,0.014329
1741.716751,0.014429
1742.198953,0.014454
1742.681156,0.014557
1743.163359,0.014701
1743.645562,0.014728
1744.127765,0.014731
1744.609968,0.014709
1745.092171,0.014589
1745.574373,0.014474
1746.056576,0.014375
1746.538779,0.014224
1747.020982,0.014082
1747.503185,0.013989
1747.985388,0.013875
1748.467591,0.013743
1748.949794,0.013675
1749.431996,0.013586
1749.914199,0.013502
1750.396402,0.013579
1750.878605,0.013703
1751.360808,0.013770
1751.843011,0.013761
1752.325214,0.013662
1752.807416,0.013644
1753.289619,0.013698
1753.771822,0.013673
1754.254025,0.013683
1754.736228,0.013764
1755.218431,0.013779
1755.700634,0.013763
1756.182837,0.013754
1756.665039,0.013620
1757.147242,0.013387
1757.629445,0.013262
1758.111648,0.013204
1758.593851,0.013046
1759.076054,0.012747
1759.558257,0.012371
1760.040459,0.011942
1760.522662,0.011400
1761.004865,0.010832
1761.487068,0.010339
1761.969271,0.009722
1762.451474,0.009002
1762.933677,0.008475
1763.415880,0.008019
1763.898082,0.007460
1764.380285,0.006901
1764.862488,0.006384
1765.344691,0.005921
1765.826894,0.005523
1766.309097,0.005094
1766.791300,0.004646
1767.273502,0.004269
1767.755705,0.003935
1768.237908,0.003507
1768.720111,0.003040
1769.202314,0.002693
1769.684517,0.002402
1770.166720,0.002127
1770.648922,0.001891
1771.131125,0.001659
1771.613328,0.001463
1772.095531,0.001357
1772.577734,0.001123
1773.059937,0.000756
1773.542140,0.000598
1774.024343,0.000441
1774.506545,0.000214
1774.988748,0.000165
1775.470951,0.000181
1775.953154,0.000140
1776.435357,0.000058
1776.917560,-0.000037
1777.399763,-0.000041
1777.881965,-0.000025
1778.364168,-0.000082
1778.846371,-0.000091
1779.328574,-0.000050
1779.810777,-0.000006
1780.292980,0.000074
1780.775183,0.000078
1781.257386,0.000050
1781.739588,0.000123
1782.221791,0.000141
1782.703994,0.000103
1783.186197,0.000137
1783.668400,0.000206
1784.150603,0.000408
1784.632806,0.000627
1785.115008,0.000532
1785.597211,0.000429
1786.079414,0.000555
1786.561617,0.000554
1787.043820,0.000463
1787.526023,0.000521
1788.008226,0.000689
1788.490429,0.000889
1788.972631,0.000866
1789.454834,0.000650
1789.937037,0.000639
1790.419240,0.000690
1790.901443,0.000553
1791.383646,0.000442
1791.865849,0.000507
1792.348051,0.000715
1792.830254,0.000804
1793.312457,0.000532
1793.794660,0.000330
1794.276863,0.000406
1794.759066,0.000459
1795.241269,0.000334
1795.723471,0.000237
1796.205674,0.000436
1796.687877,0.000764
1797.170080,0.000625
1797.652283,0.000258
1798.134486,0.000407
1798.616689,0.000696
1799.098892,0.000572
1799.581094,0.000280
1800.063297,0.000223
1800.545500,0.000556
1801.027703,0.000663
1801.509906,0.000181
1801.992109,0.000052
1802.474312,0.000501
1802.956514,0.000670
1803.438717,0.000510
1803.920920,0.000583
1804.403123,0.001156
1804.885326,0.001593
1805.367529,0.001129
1805.849732,0.000623
1806.331935,0.000927
1806.814137,0.001312
1807.296340,0.001195
1807.778543,0.000978
1808.260746,0.001458
1808.742949,0.002230
1809.225152,0.001843
1809.707355,0.000950
1810.189557,0.001057
1810.671760,0.001561
1811.153963,0.001502
1811.636166,0.001115
1812.118369,0.001475
1812.600572,0.002495
1813.082775,0.002276
1813.564978,0.001096
1814.047180,0.000897
1814.529383,0.001629
1815.011586,0.001975
1815.493789,0.001466
1815.975992,0.001622
1816.458195,0.002919
1816.940398,0.002926
1817.422600,0.001500
1817.904803,0.001025
1818.387006,0.001836
1818.869209,0.002473
1819.351412,0.001965
1819.833615,0.001990
1820.315818,0.003542
1820.798021,0.003577
1821.280223,0.001752
1821.762426,0.001048
1822.244629,0.001917
1822.726832,0.002905
1823.209035,0.002498
1823.691238,0.002425
1824.173441,0.004287
1824.655643,0.004323
1825.137846,0.002067
1825.620049,0.001246
1826.102252,0.002287
1826.584455,0.003584
1827.066658,0.003310
1827.548861,0.003264
1828.031063,0.005151
1828.513266,0.004669
1828.995469,0.002074
1829.477672,0.001419
1829.959875,0.002599
1830.442078,0.004136
1830.924281,0.003906
1831.406484,0.004170
1831.888686,0.006031
1832.370889,0.004677
1832.853092,0.001822
1833.335295,0.001510
1833.817498,0.003126
1834.299701,0.004974
1834.781904,0.004851
1835.264106,0.005568
1835.746309,0.007031
1836.228512,0.004565
1836.710715,0.001974
1837.192918,0.002247
1837.675121,0.004149
1838.157324,0.005990
1838.639527,0.005958
1839.121729,0.007113
1839.603932,0.007299
1840.086135,0.003736
1840.568338,0.001894
1841.050541,0.002815
1841.532744,0.005126
1842.014947,0.006881
1842.497149,0.007328
1842.979352,0.008729
1843.461555,0.007123
1843.943758,0.003305
1844.425961,0.002481
1844.908164,0.003742
1845.390367,0.006070
1845.872570,0.007556
1846.354772,0.008554
1846.836975,0.008542
1847.319178,0.004681
1847.801381,0.001974
1848.283584,0.002540
1848.765787,0.004461
1849.247990,0.007078
1849.730192,0.008610
1850.212395,0.009251
1850.694598,0.006796
1851.176801,0.002715
1851.659004,0.001880
1852.141207,0.003143
1852.623410,0.005508
1853.105613,0.008040
1853.587815,0.009470
1854.070018,0.008249
1854.552221,0.004014
1855.034424,0.001678
1855.516627,0.002321
1855.998830,0.003977
1856.481033,0.006602
1856.963235,0.008937
1857.445438,0.008684
1857.927641,0.005015
1858.409844,0.001898
1858.892047,0.001804
1859.374250,0.002803
1859.856453,0.004759
1860.338655,0.007648
1860.820858,0.008610
1861.303061,0.005573
1861.785264,0.001950
1862.267467,0.001241
1862.749670,0.001913
1863.231873,0.003084
1863.714076,0.005578
1864.196278,0.007319
1864.678481,0.005325
1865.160684,0.001857
1865.642887,0.000706
1866.125090,0.001131
1866.607293,0.001787
1867.089496,0.003346
1867.571698,0.005004
1868.053901,0.004040
1868.536104,0.001286
1869.018307,0.000168
1869.500510,0.000381
1869.982713,0.000525
1870.464916,0.001001
1870.947119,0.001934
1871.429321,0.001898
1871.911524,0.000761
1872.393727,0.000336
1872.875930,0.000633
1873.358133,0.000943
1873.840336,0.001643
1874.322539,0.002835
1874.804741,0.004226
1875.286944,0.006398
1875.769147,0.008447
1876.251350,0.006557
1876.733553,0.002167
1877.215756,0.000169
1877.697959,-0.000079
1878.180162,-0.000217
1878.662364,-0.000190
1879.144567,-0.000140
1879.626770,0.000079
1880.108973,0.000409
1880.591176,0.001255
1881.073379,0.002198
1881.555582,0.001759
1882.037784,0.000569
1882.519987,0.000493
1883.002190,0.001188
1883.484393,0.001941
1883.966596,0.004093
1884.448799,0.005994
1884.931002,0.004207
1885.413204,0.001459
1885.895407,0.001377
1886.377610,0.002260
1886.859813,0.003727
1887.342016,0.007364
1887.824219,0.008894
1888.306422,0.005127
1888.788625,0.002062
1889.270827,0.002770
1889.753030,0.003813
1890.235233,0.006252
1890.717436,0.010631
1891.199639,0.010231
1891.681842,0.004854
1892.164045,0.002611
1892.646247,0.003654
1893.128450,0.005047
1893.610653,0.009397
1894.092856,0.013225
1894.575059,0.009581
1895.057262,0.004000
1895.539465,0.003438
1896.021668,0.004713
1896.503870,0.007435
1896.986073,0.012861
1897.468276,0.013330
1897.950479,0.007178
1898.432682,0.003665
1898.914885,0.004413
1899.397088,0.006243
1899.879290,0.010955
1900.361493,0.014611
1900.843696,0.010648
1901.325899,0.005019
1901.808102,0.004121
1902.290305,0.005494
1902.772508,0.009025
1903.254711,0.013820
1903.736913,0.012804
1904.219116,0.007031
1904.701319,0.004269
1905.183522,0.004881
1905.665725,0.007639
1906.147928,0.012465
1906.630131,0.013464
1907.112333,0.008664
1907.594536,0.004794
1908.076739,0.004354
1908.558942,0.006358
1909.041145,0.010752
1909.523348,0.012825
1910.005551,0.009437
1910.487754,0.005501
1910.969956,0.004322
1911.452159,0.005800
1911.934362,0.009712
1912.416565,0.011796
1912.898768,0.009114
1913.380971,0.005552
1913.863174,0.004025
1914.345376,0.004971
1914.827579,0.008367
1915.309782,0.010281
1915.791985,0.008279
1916.274188,0.005393
1916.756391,0.003676
1917.238594,0.004271
1917.720796,0.007293
1918.202999,0.008727
1918.685202,0.006968
1919.167405,0.004929
1919.649608,0.003529
1920.131811,0.004115
1920.614014,0.006793
1921.096217,0.007567
1921.578419,0.005899
1922.060622,0.004363
1922.542825,0.003201
1923.025028,0.003915
1923.507231,0.006210
1923.989434,0.006212
1924.471637,0.004711
1924.953839,0.003621
1925.436042,0.002667
1925.918245,0.003588
1926.400448,0.005276
1926.882651,0.004715
1927.364854,0.003581
1927.847057,0.002860
1928.329260,0.002307
1928.811462,0.003412
1929.293665,0.004315
1929.775868,0.003413
1930.258071,0.002728
1930.740274,0.002182
1931.222477,0.002058
1931.704680,0.003134
1932.186882,0.003189
1932.669085,0.002330
1933.151288,0.001928
1933.633491,0.001522
1934.115694,0.001952
1934.597897,0.002587
1935.080100,0.002056
1935.562303,0.001706
1936.044505,0.001541
1936.526708,0.001315
1937.008911,0.001816
1937.491114,0.001850
1937.973317,0.001339
1938.455520,0.001156
1938.937723,0.000932
1939.419925,0.001173
1939.902128,0.001470
1940.384331,0.001076
1940.866534,0.000829
1941.348737,0.000717
1941.830940,0.000766
1942.313143,0.001015
1942.795346,0.000743
1943.277548,0.000494
1943.759751,0.000511
1944.241954,0.000517
1944.724157,0.000683
1945.206360,0.000561
1945.688563,0.000319
1946.170766,0.000279
1946.652968,0.000211
1947.135171,0.000336
1947.617374,0.000394
1948.099577,0.000236
1948.581780,0.000167
1949.063983,0.000102
1949.546186,0.000155
1950.028388,0.000243
1950.510591,0.000176
1950.992794,0.000110
1951.474997,0.000104
1951.957200,0.000142
1952.439403,0.000069
1952.921606,-0.000036
1953.403809,-0.000021
1953.886011,-0.000027
1954.368214,0.000004
1954.850417,0.000030
1955.332620,-0.000054
1955.814823,-0.000105
1956.297026,-0.000075
1956.779229,-0.000051
1957.261431,-0.000121
1957.743634,-0.000160
1958.225837,-0.000107
1958.708040,-0.000071
1959.190243,-0.000026
1959.672446,-0.000048
1960.154649,-0.000178
1960.636852,-0.000235
1961.119054,-0.000185
1961.601257,-0.000157
1962.083460,-0.000146
1962.565663,-0.000087
1963.047866,-0.000062
1963.530069,-0.000072
1964.012272,-0.000063
1964.494474,-0.000086
1964.976677,-0.000115
1965.458880,-0.000093
1965.941083,-0.000047
1966.423286,-0.000040
1966.905489,-0.000052
1967.387692,-0.000014
1967.869895,0.000007
1968.352097,-0.000026
1968.834300,-0.000066
1969.316503,-0.000089
1969.798706,-0.000064
1970.280909,-0.000049
1970.763112,-0.000088
1971.245315,-0.000092
1971.727517,-0.000067
1972.209720,-0.000100
1972.691923,-0.000153
1973.174126,-0.000145
1973.656329,-0.000113
1974.138532,-0.000109
1974.620735,-0.000078
1975.102938,-0.000061
1975.585140,-0.000113
1976.067343,-0.000126
1976.549546,-0.000092
1977.031749,-0.000121
1977.513952,-0.000194
1977.996155,-0.000167
1978.478358,-0.000071
1978.960560,-0.000063
1979.442763,-0.000111
1979.924966,-0.000096
1980.407169,-0.000038
1980.889372,-0.000057
1981.371575,-0.000098
1981.853778,-0.000056
1982.335980,-0.000079
1982.818183,-0.000136
1983.300386,-0.000089
1983.782589,-0.000098
1984.264792,-0.000159
1984.746995,-0.000115
1985.229198,-0.000041
1985.711401,-0.000001
1986.193603,-0.000014
1986.675806,-0.000122
1987.158009,-0.000182
1987.640212,-0.000122
1988.122415,-0.000078
1988.604618,-0.000055
1989.086821,-0.000004
1989.569023,0.000018
1990.051226,-0.000019
1990.533429,-0.000079
1991.015632,-0.000110
1991.497835,-0.000100
1991.980038,-0.000038
1992.462241,0.000008
1992.944444,-0.000030
1993.426646,-0.000024
1993.908849,0.000025
1994.391052,-0.000020
1994.873255,-0.000088
1995.355458,-0.000090
1995.837661,-0.000086
1996.319864,-0.000104
1996.802066,-0.000124
1997.284269,-0.000172
1997.766472,-0.000210
1998.248675,-0.000159
1998.730878,-0.000102
1999.213081,-0.000135
1999.695284,-0.000160
2000.177487,-0.000111
2000.659689,-0.000095
2001.141892,-0.000107
2001.624095,-0.000065
2002.106298,-0.000052
2002.588501,-0.000107
2003.070704,-0.000140
2003.552907,-0.000142
2004.035109,-0.000169
2004.517312,-0.000211
2004.999515,-0.000203
2005.481718,-0.000149
2005.963921,-0.000106
2006.446124,-0.000088
2006.928327,-0.000100
2007.410529,-0.000101
2007.892732,-0.000071
2008.374935,-0.000057
2008.857138,-0.000083
2009.339341,-0.000120
2009.821544,-0.000140
2010.303747,-0.000103
2010.785950,-0.000004
2011.268152,0.000011
2011.750355,-0.000067
2012.232558,-0.000099
2012.714761,-0.000140
2013.196964,-0.000158
2013.679167,-0.000112
2014.161370,-0.000133
2014.643572,-0.000120
2015.125775,-0.000000
2015.607978,0.000033
2016.090181,-0.000046
2016.572384,-0.000080
2017.054587,-0.000029
2017.536790,-0.000028
2018.018993,-0.000105
2018.501195,-0.000138
2018.983398,-0.000097
2019.465601,-0.000046
2019.947804,-0.000082
2020.430007,-0.000194
2020.912210,-0.000221
2021.394413,-0.000197
2021.876615,-0.000197
2022.358818,-0.000125
2022.841021,-0.000049
2023.323224,-0.000042
2023.805427,-0.000018
2024.287630,-0.000009
2024.769833,-0.000049
2025.252036,-0.000074
2025.734238,-0.000070
2026.216441,-0.000098
2026.698644,-0.000135
2027.180847,-0.000087
2027.663050,-0.000044
2028.145253,-0.000070
2028.627456,-0.000050
2029.109658,-0.000008
2029.591861,-0.000048
2030.074064,-0.000071
2030.556267,-0.000019
2031.038470,-0.000062
2031.520673,-0.000157
2032.002876,-0.000132
2032.485079,-0.000136
2032.967281,-0.000223
2033.449484,-0.000220
2033.931687,-0.000154
2034.413890,-0.000144
2034.896093,-0.000139
2035.378296,-0.000095
2035.860499,-0.000103
2036.342701,-0.000147
2036.824904,-0.000124
2037.307107,-0.000076
2037.789310,-0.000081
2038.271513,-0.000131
2038.753716,-0.000147
2039.235919,-0.000092
2039.718121,-0.000081
2040.200324,-0.000117
2040.682527,-0.000072
2041.164730,-0.000003
2041.646933,0.000012
2042.129136,0.000019
2042.611339,-0.000063
2043.093542,-0.000211
2043.575744,-0.000213
2044.057947,-0.000182
2044.540150,-0.000239
2045.022353,-0.000257
2045.504556,-0.000212
2045.986759,-0.000132
2046.468962,-0.000103
2046.951164,-0.000139
2047.433367,-0.000082
2047.915570,-0.000031
2048.397773,-0.000127
2048.879976,-0.000224
2049.362179,-0.000226
2049.844382,-0.000206
2050.326585,-0.000176
2050.808787,-0.000135
2051.290990,-0.000139
2051.773193,-0.000149
2052.255396,-0.000149
2052.737599,-0.000164
2053.219802,-0.000155
2053.702005,-0.000074
2054.184207,0.000027
2054.666410,0.000013
2055.148613,-0.000044
2055.630816,-0.000050
2056.113019,-0.000085
2056.595222,-0.000117
2057.077425,-0.000105
2057.559628,-0.000059
2058.041830,-0.000040
2058.524033,-0.000086
2059.006236,-0.000099
2059.488439,-0.000103
2059.970642,-0.000146
2060.452845,-0.000152
2060.935048,-0.000081
2061.417250,0.000004
2061.899453,-0.000030
2062.381656,-0.000136
2062.863859,-0.000142
2063.346062,-0.000102
2063.828265,-0.000126
2064.310468,-0.000179
2064.792671,-0.000208
2065.274873,-0.000186
2065.757076,-0.000153
2066.239279,-0.000176
2066.721482,-0.000192
2067.203685,-0.000137
2067.685888,-0.000083
2068.168091,-0.000091
2068.650293,-0.000130
2069.132496,-0.000161
2069.614699,-0.000173
2070.096902,-0.000193
2070.579105,-0.000238
2071.061308,-0.000241
2071.543511,-0.000213
2072.025713,-0.000207
2072.507916,-0.000151
2072.990119,-0.000059
2073.472322,-0.000044
2073.954525,-0.000115
2074.436728,-0.000177
2074.918931,-0.000175
2075.401134,-0.000176
2075.883336,-0.000167
2076.365539,-0.000083
2076.847742,-0.000031
2077.329945,-0.000069
2077.812148,-0.000078
2078.294351,-0.000090
2078.776554,-0.000165
2079.258756,-0.000172
2079.740959,-0.000120
2080.223162,-0.000090
2080.705365,-0.000073
2081.187568,-0.000110
2081.669771,-0.000115
2082.151974,-0.000029
2082.634177,-0.000037
2083.116379,-0.000154
2083.598582,-0.000232
2084.080785,-0.000254
2084.562988,-0.000211
2085.045191,-0.000158
2085.527394,-0.000165
2086.009597,-0.000064
2086.491799,0.000088
2086.974002,0.000022
2087.456205,-0.000108
2087.938408,-0.000165
2088.420611,-0.000189
2088.902814,-0.000127
2089.385017,-0.000116
2089.867220,-0.000150
2090.349422,-0.000034
2090.831625,0.000025
2091.313828,-0.000103
2091.796031,-0.000160
2092.278234,-0.000152
2092.760437,-0.000187
2093.242640,-0.000096
2093.724842,0.000020
2094.207045,-0.000021
2094.689248,-0.000002
2095.171451,0.000023
2095.653654,-0.000130
2096.135857,-0.000239
2096.618060,-0.000237
2097.100262,-0.000252
2097.582465,-0.000230
2098.064668,-0.000129
2098.546871,0.000023
2099.029074,0.000130
2099.511277,0.000052
2099.993480,-0.000146
2100.475683,-0.000265
2100.957885,-0.000239
2101.440088,-0.000172
2101.922291,-0.000167
2102.404494,-0.000141
2102.886697,-0.000000
2103.368900,0.000103
2103.851103,-0.000007
2104.333305,-0.000200
2104.815508,-0.000253
2105.297711,-0.000188
2105.779914,-0.000109
2106.262117,-0.000106
2106.744320,-0.000067
2107.226523,0.000164
2107.708726,0.000251
2108.190928,0.000047
2108.673131,-0.000113
2109.155334,-0.000142
2109.637537,-0.000130
2110.119740,-0.000155
2110.601943,-0.000168
2111.084146,-0.000032
2111.566348,0.000094
2112.048551,0.000047
2112.530754,-0.000057
2113.012957,-0.000166
2113.495160,-0.000225
2113.977363,-0.000145
2114.459566,-0.000075
2114.941769,-0.000004
2115.423971,0.000203
2115.906174,0.000274
2116.388377,0.000092
2116.870580,-0.000118
2117.352783,-0.000230
2117.834986,-0.000187
2118.317189,-0.000097
2118.799391,-0.000049
2119.281594,0.000092
2119.763797,0.000206
2120.246000,0.000050
2120.728203,-0.000175
2121.210406,-0.000196
2121.692609,-0.000078
2122.174812,0.000008
2122.657014,-0.000034
2123.139217,-0.000083
2123.621420,0.000021
2124.103623,0.000076
2124.585826,-0.000052
2125.068029,-0.000170
2125.550232,-0.000226
2126.032434,-0.000188
2126.514637,-0.000065
2126.996840,-0.000015
2127.479043,0.000069
2127.961246,0.000109
2128.443449,-0.000079
2128.925652,-0.000217
2129.407854,-0.000209
2129.890057,-0.000160
2130.372260,-0.000115
2130.854463,-0.000131
2131.336666,-0.000032
2131.818869,0.000108
2132.301072,-0.000014
2132.783275,-0.000184
2133.265477,-0.000204
2133.747680,-0.000207
2134.229883,-0.000179
2134.712086,-0.000131
2135.194289,-0.000081
2135.676492,-0.000050
2136.158695,-0.000181
2136.640897,-0.000281
2137.123100,-0.000187
2137.605303,-0.000121
2138.087506,-0.000141
2138.569709,-0.000179
2139.051912,-0.000142
2139.534115,-0.000078
2140.016318,-0.000207
2140.498520,-0.000331
2140.980723,-0.000225
2141.462926,-0.000136
2141.945129,-0.000213
2142.427332,-0.000304
2142.909535,-0.000338
2143.391738,-0.000399
2143.873940,-0.000425
2144.356143,-0.000356
2144.838346,-0.000325
2145.320549,-0.000295
2145.802752,-0.000201
2146.284955,-0.000179
2146.767158,-0.000169
2147.249361,-0.000090
2147.731563,-0.000074
2148.213766,-0.000120
2148.695969,-0.000145
2149.178172,-0.000150
2149.660375,-0.000147
2150.142578,-0.000104
2150.624781,0.000035
2151.106983,0.000112
2151.589186,-0.000002
2152.071389,-0.000103
2152.553592,-0.000111
2153.035795,-0.000100
2153.517998,-0.000076
2154.000201,-0.000036
2154.482404,0.000074
2154.964606,0.000130
2155.446809,0.000009
2155.929012,-0.000092
2156.411215,-0.000089
2156.893418,-0.000075
2157.375621,-0.000070
2157.857824,0.000049
2158.340026,0.000265
2158.822229,0.000217
2159.304432,-0.000038
2159.786635,-0.000113
2160.268838,-0.000032
2160.751041,0.000038
2161.233244,0.000026
2161.715446,0.000101
2162.197649,0.000248
2162.679852,0.000113
2163.162055,-0.000075
2163.644258,-0.000048
2164.126461,-0.000009
2164.608664,0.000020
2165.090867,0.000096
2165.573069,0.000231
2166.055272,0.000287
2166.537475,0.000120
2167.019678,-0.000096
2167.501881,-0.000162
2167.984084,-0.000101
2168.466287,-0.000037
2168.948489,0.000154
2169.430692,0.000383
2169.912895,0.000204
2170.395098,-0.000084
2170.877301,-0.000055
2171.359504,0.000039
2171.841707,0.000101
2172.323910,0.000271
2172.806112,0.000434
2173.288315,0.000339
2173.770518,0.000070
2174.252721,-0.000058
2174.734924,-0.000002
2175.217127,0.000069
2175.699330,0.000125
2176.181532,0.000323
2176.663735,0.000410
2177.145938,0.000136
2177.628141,-0.000022
2178.110344,0.000081
2178.592547,0.000141
2179.074750,0.000228
2179.556953,0.000413
2180.039155,0.000492
2180.521358,0.000315
2181.003561,0.000134
2181.485764,0.000148
2181.967967,0.000171
2182.450170,0.000240
2182.932373,0.000434
2183.414575,0.000494
2183.896778,0.000336
2184.378981,0.000193
2184.861184,0.000206
2185.343387,0.000251
2185.825590,0.000238
2186.307793,0.000314
2186.789995,0.000456
2187.272198,0.000437
2187.754401,0.000327
2188.236604,0.000275
2188.718807,0.000215
2189.201010,0.000240
2189.683213,0.000467
2190.165416,0.000637
2190.647618,0.000531
2191.129821,0.000347
2191.612024,0.000296
2192.094227,0.000331
2192.576430,0.000433
2193.058633,0.000651
2193.540836,0.000798
2194.023038,0.000714
2194.505241,0.000613
2194.987444,0.000645
2195.469647,0.000704
2195.951850,0.000730
2196.434053,0.000825
2196.916256,0.000915
2197.398459,0.000816
2197.880661,0.000716
2198.362864,0.000690
2198.845067,0.000640
2199.327270,0.000708
2199.809473,0.000837
2200.291676,0.000898
2200.773879,0.000867
2201.256081,0.000776
2201.738284,0.000807
2202.220487,0.000898
2202.702690,0.000948
2203.184893,0.001021
2203.667096,0.001003
2204.149299,0.000939
2204.631502,0.000926
2205.113704,0.000848
2205.595907,0.000879
2206.078110,0.001121
2206.560313,0.001270
2207.042516,0.001241
2207.524719,0.001141
2208.006922,0.001077
2208.489124,0.001141
2208.971327,0.001225
2209.453530,0.001243
2209.935733,0.001200
2210.417936,0.001128
2210.900139,0.001095
2211.382342,0.001100
2211.864545,0.001133
2212.346747,0.001190
2212.828950,0.001238
2213.311153,0.001236
2213.793356,0.001157
2214.275559,0.001060
2214.757762,0.000998
2215.239965,0.000969
2215.722167,0.000998
2216.204370,0.001054
2216.686573,0.001064
2217.168776,0.001050
2217.650979,0.000981
2218.133182,0.000844
2218.615385,0.000800
2219.097587,0.000769
2219.579790,0.000631
2220.061993,0.000530
2220.544196,0.000461
2221.026399,0.000411
2221.508602,0.000418
2221.990805,0.000383
2222.473008,0.000315
2222.955210,0.000274
2223.437413,0.000244
2223.919616,0.000254
2224.401819,0.000318
2224.884022,0.000359
2225.366225,0.000390
2225.848428,0.000524
2226.330630,0.000671
2226.812833,0.000685
2227.295036,0.000702
2227.777239,0.000818
2228.259442,0.000926
2228.741645,0.001028
2229.223848,0.001139
2229.706051,0.001215
2230.188253,0.001269
2230.670456,0.001273
2231.152659,0.001269
2231.634862,0.001287
2232.117065,0.001263
2232.599268,0.001305
2233.081471,0.001447
2233.563673,0.001491
2234.045876,0.001466
2234.528079,0.001521
2235.010282,0.001604
2235.492485,0.001679
2235.974688,0.001733
2236.456891,0.001761
2236.939094,0.001807
2237.421296,0.001771
2237.903499,0.001693
2238.385702,0.001657
2238.867905,0.001568
2239.350108,0.001514
2239.832311,0.001513
2240.314514,0.001482
2240.796716,0.001495
2241.278919,0.001540
2241.761122,0.001526
2242.243325,0.001400
2242.725528,0.001247
2243.207731,0.001206
2243.689934,0.001207
2244.172137,0.001182
2244.654339,0.001132
2245.136542,0.001045
2245.618745,0.000973
2246.100948,0.000917
2246.583151,0.000853
2247.065354,0.000759
2247.547557,0.000674
2248.029759,0.000686
2248.511962,0.000687
2248.994165,0.000669
2249.476368,0.000683
2249.958571,0.000565
2250.440774,0.000449
2250.922977,0.000452
2251.405179,0.000358
2251.887382,0.000276
2252.369585,0.000314
2252.851788,0.000322
2253.333991,0.000313
2253.816194,0.000262
2254.298397,0.000184
2254.780600,0.000202
2255.262802,0.000170
2255.745005,0.000059
2256.227208,0.000037
2256.709411,0.000091
2257.191614,0.000182
2257.673817,0.000212
2258.156020,0.000158
2258.638222,0.000138
2259.120425,0.000123
2259.602628,0.000102
2260.084831,0.000091
2260.567034,0.000049
2261.049237,0.000001
2261.531440,-0.000041
2262.013643,-0.000038
2262.495845,0.000006
2262.978048,0.000008
2263.460251,-0.000011
2263.942454,-0.000017
2264.424657,-0.000029
2264.906860,-0.000021
2265.389063,0.000032
2265.871265,0.000086
2266.353468,0.000056
2266.835671,0.000004
2267.317874,0.000077
2267.800077,0.000119
2268.282280,-0.000008
2268.764483,-0.000070
2269.246686,-0.000001
2269.728888,0.000016
2270.211091,-0.000008
2270.693294,-0.000023
2271.175497,-0.000015
2271.657700,-0.000004
2272.139903,-0.000026
2272.622106,0.000048
2273.104308,0.000129
2273.586511,0.000067
2274.068714,0.000041
2274.550917,0.000085
2275.033120,0.000093
2275.515323,0.000017
2275.997526,-0.000026
2276.479729,0.000061
2276.961931,0.000083
2277.444134,0.000096
2277.926337,0.000180
2278.408540,0.000169
2278.890743,0.000131
2279.372946,0.000105
2279.855149,0.000072
2280.337351,0.000112
2280.819554,0.000200
2281.301757,0.000246
2281.783960,0.000262
2282.266163,0.000310
2282.748366,0.000311
2283.230569,0.000270
2283.712771,0.000288
2284.194974,0.000276
2284.677177,0.000263
2285.159380,0.000316
2285.641583,0.000303
2286.123786,0.000215
2286.605989,0.000181
2287.088192,0.000175
2287.570394,0.000165
2288.052597,0.000190
2288.534800,0.000198
2289.017003,0.000175
2289.499206,0.000161
2289.981409,0.000134
2290.463612,0.000126
2290.945814,0.000163
2291.428017,0.000185
2291.910220,0.000181
2292.392423,0.000177
2292.874626,0.000123
2293.356829,0.000047
2293.839032,0.000041
2294.321235,0.000009
2294.803437,-0.000037
2295.285640,-0.000021
2295.767843,-0.000083
2296.250046,-0.000119
2296.732249,-0.000029
2297.214452,-0.000004
2297.696655,0.000020
2298.178857,0.000049
2298.661060,-0.000008
2299.143263,-0.000006
2299.625466,0.000002
2300.107669,-0.000088
2300.589872,-0.000180
2301.072075,-0.000243
2301.554278,-0.000254
2302.036480,-0.000254
2302.518683,-0.000380
2303.000886,-0.000505
2303.483089,-0.000274
2303.965292,0.000039
2304.447495,0.000043
2304.929698,-0.000140
2305.411900,-0.000072
2305.894103,0.000170
2306.376306,0.000195
2306.858509,0.000010
2307.340712,0.000034
2307.822915,0.000459
2308.305118,0.000751
2308.787320,0.000487
2309.269523,0.000194
2309.751726,0.000459
2310.233929,0.000824
2310.716132,0.000611
2311.198335,0.000167
2311.680538,0.000368
2312.162741,0.000920
2312.644943,0.000787
2313.127146,0.000153
2313.609349,0.000184
2314.091552,0.000873
2314.573755,0.001062
2315.055958,0.000507
2315.538161,0.000250
2316.020363,0.000920
2316.502566,0.001450
2316.984769,0.000822
2317.466972,0.000046
2317.949175,0.000615
2318.431378,0.001327
2318.913581,0.000644
2319.395784,-0.000338
2319.877986,0.000249
2320.360189,0.001214
2320.842392,0.000589
2321.324595,-0.000536
2321.806798,0.000179
2322.289001,0.001314
2322.771204,0.000635
2323.253406,-0.000619
2323.735609,0.000139
2324.217812,0.001401
2324.700015,0.000699
2325.182218,-0.000516
2325.664421,0.000471
2326.146624,0.001712
2326.628827,0.000857
2327.111029,-0.000331
2327.593232,0.000765
2328.075435,0.001793
2328.557638,0.000535
2329.039841,-0.000611
2329.522044,0.000732
2330.004247,0.001426
2330.486449,-0.000053
2330.968652,-0.000610
2331.450855,0.001097
2331.933058,0.001404
2332.415261,-0.000361
2332.897464,-0.000408
2333.379667,0.001361
2333.861870,0.001141
2334.344072,-0.000410
2334.826275,0.000465
2335.308478,0.001860
2335.790681,0.000785
2336.272884,-0.000317
2336.755087,0.001115
2337.237290,0.001560
2337.719492,-0.000130
2338.201695,-0.000089
2338.683898,0.001574
2339.166101,0.000947
2339.648304,-0.000492
2340.130507,0.000792
2340.612710,0.001670
2341.094912,0.000374
2341.577115,0.000481
2342.059318,0.002014
2342.541521,0.001497
2343.023724,0.000511
2343.505927,0.001852
2343.988130,0.002540
2344.470333,0.001446
2344.952535,0.001950
2345.434738,0.003383
2345.916941,0.002965
2346.399144,0.002808
2346.881347,0.004312
2347.363550,0.004892
2347.845753,0.004669
2348.327955,0.005335
2348.810158,0.006062
2349.292361,0.006005
2349.774564,0.005446
2350.256767,0.004932
2350.738970,0.004750
2351.221173,0.004008
2351.703376,0.003065
2352.185578,0.003453
2352.667781,0.003353
2353.149984,0.002029
2353.632187,0.002224
2354.114390,0.002398
2354.596593,0.001018
2355.078796,0.001335
2355.560998,0.001880
2356.043201,0.000584
2356.525404,0.000926
2357.007607,0.001545
2357.489810,0.000219
2357.972013,0.000562
2358.454216,0.001207
2358.936419,0.000144
2359.418621,0.000752
2359.900824,0.001209
2360.383027,0.000072
2360.865230,0.000601
2361.347433,0.000383
2361.829636,-0.000586
2362.311839,0.000187
2362.794041,-0.000321
2363.276244,-0.000901
2363.758447,-0.000168
2364.240650,-0.000785
2364.722853,-0.000644
2365.205056,-0.000403
2365.687259,-0.001127
2366.169462,-0.000522
2366.651664,-0.000687
2367.133867,-0.000942
2367.616070,-0.000462
2368.098273,-0.000953
2368.580476,-0.000789
2369.062679,-0.000607
2369.544882,-0.000656
2370.027084,-0.000330
2370.509287,-0.000504
2370.991490,-0.000358
2371.473693,-0.000258
2371.955896,-0.000242
2372.438099,0.000084
2372.920302,0.000146
2373.402504,0.000245
2373.884707,0.000337
2374.366910,0.000532
2374.849113,0.000714
2375.331316,0.000717
2375.813519,0.000847
2376.295722,0.000961
2376.777925,0.001113
2377.260127,0.001103
2377.742330,0.001016
2378.224533,0.001139
2378.706736,0.001202
2379.188939,0.001255
2379.671142,0.001324
2380.153345,0.001333
2380.635547,0.001313
2381.117750,0.001262
2381.599953,0.001219
2382.082156,0.001187
2382.564359,0.001120
2383.046562,0.000952
2383.528765,0.000826
2384.010968,0.000784
2384.493170,0.000661
2384.975373,0.000439
2385.457576,0.000234
2385.939779,0.000124
2386.421982,0.000016
2386.904185,-0.000137
2387.386388,-0.000128
2387.868590,-0.000084
2388.350793,0.000045
2388.832996,0.000073
2389.315199,-0.000016
2389.797402,0.000011
2390.279605,0.000073
2390.761808,0.000081
2391.244011,0.000092
2391.726213,-0.000000
2392.208416,-0.000058
2392.690619,0.000095
2393.172822,0.000199
2393.655025,0.000101
2394.137228,-0.000006
2394.619431,-0.000018
2395.101633,-0.000083
2395.583836,-0.000114
2396.066039,-0.000007
2396.548242,-0.000022
2397.030445,-0.000063
2397.512648,-0.000007
2397.994851,-0.000055
2398.477053,-0.000085
2398.959256,-0.000016
2399.441459,0.000024
2399.923662,0.000036
2400.405865,0.000023
2400.888068,0.000009
2401.370271,-0.000036
2401.852474,-0.000162
2402.334676,-0.000205
2402.816879,-0.000100
2403.299082,-0.000045
2403.781285,-0.000075
2404.263488,-0.000084
2404.745691,-0.000103
2405.227894,-0.000094
2405.710096,-0.000020
2406.192299,-0.000002
2406.674502,-0.000018
2407.156705,-0.000000
2407.638908,0.000025
2408.121111,0.000053
2408.603314,0.000002
2409.085517,-0.000070
2409.567719,-0.000022
2410.049922,0.000019
2410.532125,-0.000024
2411.014328,-0.000079
2411.496531,-0.000148
2411.978734,-0.000188
2412.460937,-0.000113
2412.943139,0.000026
2413.425342,0.000061
2413.907545,-0.000011
2414.389748,-0.000097
2414.871951,-0.000194
2415.354154,-0.000192
2415.836357,-0.000096
2416.318560,-0.000072
2416.800762,-0.000072
2417.282965,-0.000087
2417.765168,-0.000097
2418.247371,-0.000046
2418.729574,-0.000077
2419.211777,-0.000115
2419.693980,-0.000031
2420.176182,0.000052
2420.658385,0.000075
2421.140588,0.000051
2421.622791,0.000021
2422.104994,0.000030
2422.587197,0.000030
2423.069400,0.000006
2423.551603,-0.000014
2424.033805,-0.000043
2424.516008,-0.000083
2424.998211,-0.000129
2425.480414,-0.000168
2425.962617,-0.000151
2426.444820,-0.000055
2426.927023,0.000035
2427.409225,0.000036
2427.891428,-0.000004
2428.373631,-0.000052
2428.855834,-0.000067
2429.338037,-0.000052
2429.820240,-0.000122
2430.302443,-0.000178
2430.784645,-0.000100
2431.266848,-0.000023
2431.749051,-0.000047
2432.231254,-0.000079
2432.713457,-0.000046
2433.195660,-0.000045
2433.677863,-0.000066
2434.160066,-0.000055
2434.642268,-0.000068
2435.124471,-0.000050
2435.606674,-0.000075
2436.088877,-0.000160
2436.571080,-0.000113
2437.053283,-0.000037
2437.535486,-0.000049
2438.017688,-0.000082
2438.499891,-0.000106
2438.982094,-0.000080
2439.464297,-0.000054
2439.946500,-0.000073
2440.428703,-0.000073
2440.910906,-0.000055
2441.393109,-0.000037
2441.875311,-0.000014
2442.357514,0.000000
2442.839717,-0.000004
2443.321920,-0.000037
2443.804123,-0.000079
2444.286326,-0.000095
2444.768529,-0.000096
2445.250731,-0.000098
2445.732934,-0.000056
2446.215137,0.000041
2446.697340,0.000073
2447.179543,0.000052
2447.661746,0.000064
2448.143949,0.000031
2448.626152,-0.000054
2449.108354,-0.000075
2449.590557,-0.000033
2450.072760,-0.000038
2450.554963,-0.000077
2451.037166,-0.000028
2451.519369,0.000041
2452.001572,0.000019
2452.483774,-0.000006
2452.965977,0.000024
2453.448180,0.000050
2453.930383,0.000032
2454.412586,-0.000010
2454.894789,-0.000032
2455.376992,-0.000014
2455.859195,0.000026
2456.341397,0.000030
2456.823600,0.000024
2457.305803,0.000074
2457.788006,0.000071
2458.270209,0.000010
2458.752412,-0.000008
2459.234615,-0.000017
2459.716817,0.000015
2460.199020,0.000036
2460.681223,-0.000040
2461.163426,-0.000080
2461.645629,-0.000062
2462.127832,-0.000052
2462.610035,0.000021
2463.092237,0.000123
2463.574440,0.000093
2464.056643,-0.000020
2464.538846,0.000004
2465.021049,0.000108
2465.503252,0.000082
2465.985455,0.000022
2466.467658,0.000053
2466.949860,0.000028
2467.432063,-0.000044
2467.914266,-0.000025
2468.396469,0.000021
2468.878672,0.000064
2469.360875,0.000055
2469.843078,-0.000017
2470.325280,-0.000021
2470.807483,0.000005
2471.289686,0.000074
2471.771889,0.000175
2472.254092,0.000174
2472.736295,0.000153
2473.218498,0.000159
2473.700701,0.000161
2474.182903,0.000198
2474.665106,0.000210
2475.147309,0.000171
2475.629512,0.000131
2476.111715,0.000074
2476.593918,0.000006
2477.076121,0.000046
2477.558323,0.000147
2478.040526,0.000172
2478.522729,0.000193
2479.004932,0.000169
2479.487135,0.000079
2479.969338,0.000093
2480.451541,0.000126
2480.933744,0.000104
2481.415946,0.000114
2481.898149,0.000139
2482.380352,0.000146
2482.862555,0.000114
2483.344758,0.000089
2483.826961,0.000091
2484.309164,0.000071
2484.791366,0.000075
2485.273569,0.000096
2485.755772,0.000072
2486.237975,0.000083
2486.720178,0.000120
2487.202381,0.000061
2487.684584,0.000027
2488.166786,0.000110
2488.648989,0.000097
2489.131192,-0.000020
2489.613395,-0.000035
2490.095598,0.000063
2490.577801,0.000146
2491.060004,0.000166
2491.542207,0.000212
2492.024409,0.000251
2492.506612,0.000152
2492.988815,0.000090
2493.471018,0.000170
2493.953221,0.000178
2494.435424,0.000126
2494.917627,0.000095
2495.399829,0.000015
2495.882032,-0.000013
2496.364235,0.000065
2496.846438,0.000130
2497.328641,0.000098
2497.810844,0.000044
2498.293047,0.000084
2498.775250,0.000137
2499.257452,0.000140
2499.739655,0.000131
2500.221858,0.000104
2500.704061,0.000087
2501.186264,0.000057
2501.668467,-0.000005
2502.150670,0.000015
2502.632872,0.000123
2503.115075,0.000173
2503.597278,0.000114
2504.079481,0.000050
2504.561684,0.000090
2505.043887,0.000123
2505.526090,0.000069
2506.008293,0.000089
2506.490495,0.000171
2506.972698,0.000193
2507.454901,0.000182
2507.937104,0.000157
2508.419307,0.000133
2508.901510,0.000127
2509.383713,0.000146
2509.865915,0.000187
2510.348118,0.000210
2510.830321,0.000175
2511.312524,0.000113
2511.794727,0.000086
2512.276930,0.000052
2512.759133,0.000053
2513.241336,0.000115
2513.723538,0.000095
2514.205741,0.000041
2514.687944,0.000051
2515.170147,0.000046
2515.652350,-0.000004
2516.134553,-0.000060
2516.616756,-0.000070
2517.098958,0.000003
2517.581161,0.000067
2518.063364,0.000067
2518.545567,0.000098
2519.027770,0.000105
2519.509973,0.000030
2519.992176,-0.000054
2520.474378,-0.000153
2520.956581,-0.000154
2521.438784,-0.000080
2521.920987,-0.000119
2522.403190,-0.000123
2522.885393,-0.000081
2523.367596,-0.000142
2523.849799,-0.000174
2524.332001,-0.000163
2524.814204,-0.000166
2525.296407,-0.000128
2525.778610,-0.000077
2526.260813,-0.000041
2526.743016,-0.000045
2527.225219,-0.000072
2527.707421,-0.000040
2528.189624,0.000007
2528.671827,0.000015
2529.154030,-0.000027
2529.636233,-0.000108
2530.118436,-0.000133
2530.600639,-0.000147
2531.082842,-0.000177
2531.565044,-0.000095
2532.047247,-0.000037
2532.529450,-0.000044
2533.011653,0.000024
2533.493856,0.000012
2533.976059,-0.000054
2534.458262,-0.000027
2534.940464,0.000032
2535.422667,0.000067
2535.904870,0.000024
2536.387073,-0.000005
2536.869276,-0.000011
2537.351479,-0.000084
2537.833682,-0.000059
2538.315885,0.000018
2538.798087,-0.000029
2539.280290,-0.000084
2539.762493,-0.000069
2540.244696,-0.000001
2540.726899,0.000054
2541.209102,-0.000008
2541.691305,-0.000083
2542.173507,-0.000083
2542.655710,-0.000050
2543.137913,0.000013
2543.620116,-0.000027
2544.102319,-0.000161
2544.584522,-0.000172
2545.066725,-0.000100
2545.548928,-0.000031
2546.031130,-0.000011
2546.513333,-0.000054
2546.995536,-0.000020
2547.477739,0.000056
2547.959942,0.000043
2548.442145,-0.000015
2548.924348,-0.000070
2549.406550,-0.000152
2549.888753,-0.000181
2550.370956,-0.000102
2550.853159,-0.000065
2551.335362,-0.000095
2551.817565,-0.000125
2552.299768,-0.000141
2552.781970,-0.000053
2553.264173,0.000024
2553.746376,-0.000083
2554.228579,-0.000159
2554.710782,-0.000072
2555.192985,-0.000065
2555.675188,-0.000111
2556.157391,-0.000033
2556.639593,0.000040
2557.121796,0.000043
2557.603999,-0.000005
2558.086202,-0.000071
2558.568405,-0.000064
2559.050608,0.000010
2559.532811,0.000053
2560.015013,-0.000046
2560.497216,-0.000129
2560.979419,-0.000054
2561.461622,-0.000022
2561.943825,-0.000043
2562.426028,-0.000037
2562.908231,-0.000034
2563.390434,-0.000001
2563.872636,-0.000013
2564.354839,-0.000068
2564.837042,-0.000042
2565.319245,-0.000026
2565.801448,-0.000058
2566.283651,-0.000023
2566.765854,0.000006
2567.248056,-0.000009
2567.730259,-0.000006
2568.212462,-0.000040
2568.694665,-0.000045
2569.176868,0.000033
2569.659071,0.000044
2570.141274,-0.000013
2570.623477,-0.000006
2571.105679,0.000001
2571.587882,-0.000052
2572.070085,-0.000009
2572.552288,0.000076
2573.034491,0.000043
2573.516694,0.000042
2573.998897,0.000061
2574.481099,-0.000004
2574.963302,0.000017
2575.445505,0.000055
2575.927708,-0.000038
2576.409911,-0.000066
2576.892114,0.000018
2577.374317,0.000046
2577.856520,0.000035
2578.338722,0.000057
2578.820925,0.000044
2579.303128,0.000018
2579.785331,0.000038
2580.267534,-0.000018
2580.749737,-0.000131
2581.231940,-0.000151
2581.714142,-0.000069
2582.196345,0.000040
2582.678548,0.000029
2583.160751,-0.000114
2583.642954,-0.000231
2584.125157,-0.000202
2584.607360,-0.000063
2585.089562,0.000015
2585.571765,0.000053
2586.053968,0.000112
2586.536171,0.000133
2587.018374,0.000093
2587.500577,-0.000014
2587.982780,-0.000057
2588.464983,-0.000056
2588.947185,-0.000085
2589.429388,-0.000030
2589.911591,0.000014
2590.393794,0.000012
2590.875997,0.000068
2591.358200,0.000061
2591.840403,-0.000047
2592.322605,-0.000065
2592.804808,-0.000010
2593.287011,0.000004
2593.769214,0.000065
2594.251417,0.000081
2594.733620,-0.000000
2595.215823,-0.000004
2595.698026,-0.000029
2596.180228,-0.000079
2596.662431,-0.000035
2597.144634,-0.000021
2597.626837,-0.000103
2598.109040,-0.000186
2598.591243,-0.000167
2599.073446,-0.000079
2599.555648,-0.000013
2600.037851,0.000029
2600.520054,0.000061
2601.002257,0.000063
2601.484460,-0.000007
2601.966663,-0.000019
2602.448866,0.000080
2602.931069,0.000064
2603.413271,-0.000023
2603.895474,-0.000017
2604.377677,-0.000007
2604.859880,0.000033
2605.342083,0.000057
2605.824286,-0.000024
2606.306489,-0.000008
2606.788691,0.000020
2607.270894,-0.000082
2607.753097,-0.000095
2608.235300,-0.000017
2608.717503,-0.000001
2609.199706,-0.000011
2609.681909,0.000031
2610.164111,0.000025
2610.646314,-0.000088
2611.128517,-0.000128
2611.610720,-0.000071
2612.092923,0.000011
2612.575126,0.000064
2613.057329,0.000048
2613.539532,0.000083
2614.021734,0.000102
2614.503937,0.000047
2614.986140,0.000102
2615.468343,0.000177
2615.950546,0.000129
2616.432749,0.000100
2616.914952,0.000087
2617.397154,0.000025
2617.879357,0.000027
2618.361560,0.000049
2618.843763,0.000003
2619.325966,0.000011
2619.808169,0.000111
2620.290372,0.000155
2620.772575,0.000107
2621.254777,0.000063
2621.736980,0.000052
2622.219183,0.000103
2622.701386,0.000188
2623.183589,0.000169
2623.665792,0.000117
2624.147995,0.000122
2624.630197,0.000167
2625.112400,0.000257
2625.594603,0.000240
2626.076806,0.000145
2626.559009,0.000124
2627.041212,0.000110
2627.523415,0.000200
2628.005618,0.000325
2628.487820,0.000275
2628.970023,0.000241
2629.452226,0.000213
2629.934429,0.000112
2630.416632,0.000141
2630.898835,0.000227
2631.381038,0.000239
2631.863240,0.000265
2632.345443,0.000285
2632.827646,0.000234
2633.309849,0.000206
2633.792052,0.000189
2634.274255,0.000121
2634.756458,0.000103
2635.238661,0.000111
2635.720863,0.000129
2636.203066,0.000180
2636.685269,0.000207
2637.167472,0.000252
2637.649675,0.000254
2638.131878,0.000220
2638.614081,0.000248
2639.096283,0.000246
2639.578486,0.000261
2640.060689,0.000287
2640.542892,0.000217
2641.025095,0.000147
2641.507298,0.000143
2641.989501,0.000163
2642.471703,0.000130
2642.953906,0.000104
2643.436109,0.000134
2643.918312,0.000064
2644.400515,-0.000009
2644.882718,0.000067
2645.364921,0.000082
2645.847124,-0.000012
2646.329326,-0.000010
2646.811529,0.000080
2647.293732,0.000109
2647.775935,0.000099
2648.258138,0.000126
2648.740341,0.000104
2649.222544,0.000030
2649.704746,0.000032
2650.186949,0.000017
2650.669152,-0.000065
2651.151355,-0.000038
2651.633558,0.000059
2652.115761,0.000067
2652.597964,0.000029
2653.080167,0.000021
2653.562369,0.000023
2654.044572,0.000004
2654.526775,-0.000029
2655.008978,-0.000081
2655.491181,-0.000095
2655.973384,-0.000049
2656.455587,-0.000082
2656.937789,-0.000119
2657.419992,0.000016
2657.902195,0.000142
2658.384398,0.000095
2658.866601,-0.000025
2659.348804,-0.000092
2659.831007,-0.000126
2660.313210,-0.000161
2660.795412,-0.000093
2661.277615,0.000034
2661.759818,0.000112
2662.242021,0.000112
2662.724224,0.000011
2663.206427,-0.000065
2663.688630,-0.000070
2664.170832,-0.000103
2664.653035,-0.000128
2665.135238,-0.000086
2665.617441,-0.000051
2666.099644,-0.000058
2666.581847,-0.000006
2667.064050,0.000070
2667.546253,0.000033
2668.028455,-0.000025
2668.510658,0.000014
2668.992861,0.000053
2669.475064,0.000040
2669.957267,0.000016
2670.439470,-0.000030
2670.921673,-0.000047
2671.403875,0.000001
2671.886078,0.000072
2672.368281,0.000116
2672.850484,0.000076
2673.332687,0.000029
2673.814890,0.000064
2674.297093,0.000072
2674.779295,0.000011
2675.261498,0.000051
2675.743701,0.000164
2676.225904,0.000136
2676.708107,0.000034
2677.190310,0.000032
2677.672513,0.000074
2678.154716,0.000020
2678.636918,-0.000012
2679.119121,0.000111
2679.601324,0.000173
2680.083527,0.000087
2680.565730,0.000007
2681.047933,0.000018
2681.530136,0.000030
2682.012338,-0.000007
2682.494541,0.000031
2682.976744,0.000024
2683.458947,0.000010
2683.941150,0.000095
2684.423353,0.000041
2684.905556,-0.000011
2685.387759,0.000045
2685.869961,0.000006
2686.352164,-0.000045
2686.834367,-0.000077
2687.316570,-0.000129
2687.798773,-0.000095
2688.280976,0.000028
2688.763179,0.000097
2689.245381,0.000093
2689.727584,0.000077
2690.209787,0.000004
2690.691990,-0.000038
2691.174193,0.000050
2691.656396,0.000120
2692.138599,0.000101
2692.620802,0.000046
2693.103004,0.000060
2693.585207,0.000179
2694.067410,0.000178
2694.549613,0.000069
2695.031816,0.000053
2695.514019,0.000050
2695.996222,0.000010
2696.478424,-0.000031
2696.960627,-0.000029
2697.442830,0.000009
2697.925033,-0.000039
2698.407236,-0.000057
2698.889439,-0.000001
2699.371642,-0.000047
2699.853844,-0.000107
2700.336047,-0.000052
2700.818250,-0.000005
2701.300453,-0.000035
2701.782656,-0.000024
2702.264859,0.000056
2702.747062,0.000145
2703.229265,0.000211
2703.711467,0.000160
2704.193670,0.000028
2704.675873,-0.000044
2705.158076,-0.000009
2705.640279,0.000050
2706.122482,0.000037
2706.604685,0.000030
2707.086887,0.000047
2707.569090,0.000019
2708.051293,0.000018
2708.533496,0.000030
2709.015699,-0.000020
2709.497902,0.000016
2709.980105,0.000106
2710.462308,0.000045
2710.944510,0.000018
2711.426713,0.000109
2711.908916,0.000077
2712.391119,-0.000038
2712.873322,-0.000060
2713.355525,0.000034
2713.837728,0.000153
2714.319930,0.000157
2714.802133,0.000077
2715.284336,0.000078
2715.766539,0.000109
2716.248742,0.000067
2716.730945,0.000067
2717.213148,0.000094
2717.695351,0.000064
2718.177553,0.000043
2718.659756,-0.000010
2719.141959,-0.000107
2719.624162,-0.000123
2720.106365,-0.000049
2720.588568,0.000028
2721.070771,0.000087
2721.552973,0.000103
2722.035176,0.000049
2722.517379,0.000010
2722.999582,0.000026
2723.481785,0.000023
2723.963988,0.000014
2724.446191,0.000041
2724.928394,0.000038
2725.410596,0.000014
2725.892799,0.000001
2726.375002,-0.000057
2726.857205,-0.000067
2727.339408,-0.000001
2727.821611,0.000006
2728.303814,0.000031
2728.786016,0.000122
2729.268219,0.000145
2729.750422,0.000105
2730.232625,0.000067
2730.714828,0.000044
2731.197031,0.000067
2731.679234,0.000082
2732.161436,0.000063
2732.643639,0.000033
2733.125842,-0.000055
2733.608045,-0.000130
2734.090248,-0.000109
2734.572451,-0.000038
2735.054654,0.000061
2735.536857,0.000096
2736.019059,0.000008
2736.501262,-0.000077
2736.983465,-0.000088
2737.465668,-0.000047
2737.947871,0.000039
2738.430074,0.000020
2738.912277,-0.000134
2739.394479,-0.000172
2739.876682,-0.000161
2740.358885,-0.000205
2740.841088,-0.000112
2741.323291,0.000068
2741.805494,0.000121
2742.287697,0.000024
2742.769900,-0.000050
2743.252102,0.000005
2743.734305,0.000012
2744.216508,-0.000077
2744.698711,-0.000071
2745.180914,0.000027
2745.663117,0.000086
2746.145320,0.000100
2746.627522,0.000040
2747.109725,-0.000037
2747.591928,-0.000026
2748.074131,-0.000031
2748.556334,-0.000037
2749.038537,0.000007
2749.520740,-0.000021
2750.002943,-0.000061
2750.485145,-0.000005
2750.967348,0.000042
2751.449551,-0.000022
2751.931754,-0.000083
2752.413957,-0.000051
2752.896160,-0.000032
2753.378363,-0.000080
2753.860565,-0.000194
2754.342768,-0.000228
2754.824971,-0.000082
2755.307174,0.000027
2755.789377,0.000013
2756.271580,0.000019
2756.753783,0.000047
2757.235986,0.000052
2757.718188,0.000091
2758.200391,0.000137
2758.682594,0.000117
2759.164797,0.000037
2759.647000,-0.000063
2760.129203,-0.000056
2760.611406,0.000018
2761.093608,-0.000040
2761.575811,-0.000138
2762.058014,-0.000111
2762.540217,-0.000045
2763.022420,-0.000066
2763.504623,-0.000131
2763.986826,-0.000138
2764.469028,-0.000101
2764.951231,-0.000109
2765.433434,-0.000103
2765.915637,0.000003
2766.397840,0.000070
2766.880043,0.000080
2767.362246,0.000099
2767.844449,0.000007
2768.326651,-0.000127
2768.808854,-0.000108
2769.291057,-0.000061
2769.773260,-0.000150
2770.255463,-0.000194
2770.737666,-0.000084
2771.219869,-0.000019
2771.702071,-0.000077
2772.184274,-0.000117
2772.666477,-0.000091
2773.148680,-0.000119
2773.630883,-0.000131
2774.113086,-0.000045
2774.595289,0.000014
2775.077492,0.000025
2775.559694,-0.000033
2776.041897,-0.000077
2776.524100,-0.000044
2777.006303,-0.000064
2777.488506,-0.000082
2777.970709,-0.000042
2778.452912,0.000029
2778.935114,0.000066
2779.417317,0.000015
2779.899520,0.000000
2780.381723,0.000018
2780.863926,0.000004
2781.346129,-0.000011
2781.828332,-0.000017
2782.310535,0.000056
2782.792737,0.000103
2783.274940,0.000028
2783.757143,0.000028
2784.239346,0.000029
2784.721549,-0.000104
2785.203752,-0.000084
2785.685955,0.000043
2786.168157,0.000052
2786.650360,0.000072
2787.132563,0.000050
2787.614766,-0.000036
2788.096969,-0.000050
2788.579172,-0.000017
2789.061375,0.000048
2789.543577,0.000047
2790.025780,0.000020
2790.507983,0.000081
2790.990186,0.000059
2791.472389,-0.000015
2791.954592,-0.000016
2792.436795,-0.000015
2792.918998,-0.000014
2793.401200,-0.000027
2793.883403,-0.000050
2794.365606,-0.000012
2794.847809,0.000020
2795.330012,0.000010
2795.812215,0.000037
2796.294418,0.000066
2796.776620,0.000011
2797.258823,-0.000031
2797.741026,0.000003
2798.223229,-0.000044
2798.705432,-0.000185
2799.187635,-0.000215
2799.669838,-0.000091
2800.152041,-0.000032
2800.634243,-0.000151
2801.116446,-0.000228
2801.598649,-0.000165
2802.080852,-0.000093
2802.563055,-0.000044
2803.045258,-0.000016
2803.527461,0.000009
2804.009663,0.000018
2804.491866,-0.000052
2804.974069,-0.000075
2805.456272,-0.000013
2805.938475,-0.000059
2806.420678,-0.000166
2806.902881,-0.000188
2807.385084,-0.000259
2807.867286,-0.000382
2808.349489,-0.000331
2808.831692,-0.000170
2809.313895,-0.000053
2809.796098,0.000039
2810.278301,0.000011
2810.760504,-0.000109
2811.242706,-0.000117
2811.724909,-0.000019
2812.207112,0.000061
2812.689315,0.000029
2813.171518,-0.000078
2813.653721,-0.000088
2814.135924,-0.000016
2814.618127,-0.000031
2815.100329,-0.000095
2815.582532,-0.000073
2816.064735,-0.000032
2816.546938,-0.000064
2817.029141,-0.000104
2817.511344,-0.000087
2817.993547,0.000004
2818.475749,0.000062
2818.957952,0.000031
2819.440155,0.000030
2819.922358,0.000024
2820.404561,-0.000039
2820.886764,-0.000087
2821.368967,-0.000057
2821.851169,0.000054
2822.333372,0.000102
2822.815575,0.000105
2823.297778,0.000144
2823.779981,0.000094
2824.262184,0.000018
2824.744387,0.000023
2825.226590,0.000038
2825.708792,-0.000019
2826.190995,-0.000110
2826.673198,-0.000037
2827.155401,0.000041
2827.637604,-0.000108
2828.119807,-0.000152
2828.602010,-0.000001
2829.084212,0.000059
2829.566415,0.000080
2830.048618,0.000118
2830.530821,0.000041
2831.013024,-0.000087
2831.495227,-0.000064
2831.977430,0.000091
2832.459633,0.000192
2832.941835,0.000193
2833.424038,0.000102
2833.906241,0.000045
2834.388444,0.000074
2834.870647,0.000029
2835.352850,-0.000031
2835.835053,-0.000055
2836.317255,-0.000008
2836.799458,0.000086
2837.281661,0.000046
2837.763864,0.000103
2838.246067,0.000264
2838.728270,0.000274
2839.210473,0.000310
2839.692676,0.000319
2840.174878,0.000183
2840.657081,0.000096
2841.139284,0.000181
2841.621487,0.000388
2842.103690,0.000478
2842.585893,0.000354
2843.068096,0.000233
2843.550298,0.000258
2844.032501,0.000338
2844.514704,0.000369
2844.996907,0.000385
2845.479110,0.000405
2845.961313,0.000463
2846.443516,0.000548
2846.925719,0.000554
2847.407921,0.000570
2847.890124,0.000703
2848.372327,0.000804
2848.854530,0.000768
2849.336733,0.000659
2849.818936,0.000621
2850.301139,0.000742
2850.783341,0.000893
2851.265544,0.000962
2851.747747,0.000972
2852.229950,0.001018
2852.712153,0.001112
2853.194356,0.001073
2853.676559,0.001024
2854.158761,0.001141
2854.640964,0.001157
2855.123167,0.001130
2855.605370,0.001299
2856.087573,0.001464
2856.569776,0.001530
2857.051979,0.001604
2857.534182,0.001725
2858.016384,0.001851
2858.498587,0.001966
2858.980790,0.002140
2859.462993,0.002196
2859.945196,0.002038
2860.427399,0.002127
2860.909602,0.002522
2861.391804,0.002680
2861.874007,0.002668
2862.356210,0.002777
2862.838413,0.002968
2863.320616,0.003284
2863.802819,0.003494
2864.285022,0.003497
2864.767225,0.003588
2865.249427,0.003833
2865.731630,0.004118
2866.213833,0.004338
2866.696036,0.004560
2867.178239,0.004685
2867.660442,0.004823
2868.142645,0.005244
2868.624847,0.005576
2869.107050,0.005778
2869.589253,0.005951
2870.071456,0.006087
2870.553659,0.006412
2871.035862,0.006801
2871.518065,0.007158
2872.000268,0.007295
2872.482470,0.007375
2872.964673,0.007712
2873.446876,0.007995
2873.929079,0.008306
2874.411282,0.008601
2874.893485,0.008828
2875.375688,0.009351
2875.857890,0.009902
2876.340093,0.010143
2876.822296,0.010220
2877.304499,0.010479
2877.786702,0.011054
2878.268905,0.011572
2878.751108,0.011719
2879.233311,0.011787
2879.715513,0.012162
2880.197716,0.012752
2880.679919,0.013213
2881.162122,0.013195
2881.644325,0.013140
2882.126528,0.013706
2882.608731,0.014403
2883.090933,0.014550
2883.573136,0.014317
2884.055339,0.014472
2884.537542,0.015202
2885.019745,0.015760
2885.501948,0.015674
2885.984151,0.015431
2886.466353,0.015820
2886.948556,0.016524
2887.430759,0.016591
2887.912962,0.016086
2888.395165,0.016012
2888.877368,0.016704
2889.359571,0.017099
2889.841774,0.016672
2890.323976,0.016393
2890.806179,0.016964
2891.288382,0.017598
2891.770585,0.017182
2892.252788,0.016360
2892.734991,0.016438
2893.217194,0.016964
2893.699396,0.016835
2894.181599,0.016257
2894.663802,0.016056
2895.146005,0.016229
2895.628208,0.016038
2896.110411,0.015524
2896.592614,0.015406
2897.074817,0.015441
2897.557019,0.014888
2898.039222,0.014106
2898.521425,0.014162
2899.003628,0.014487
2899.485831,0.013771
2899.968034,0.012890
2900.450237,0.013011
2900.932439,0.013207
2901.414642,0.012365
2901.896845,0.011672
2902.379048,0.011915
2902.861251,0.011526
2903.343454,0.010671
2903.825657,0.010334
2904.307860,0.009878
2904.790062,0.009275
2905.272265,0.008514
2905.754468,0.007500
2906.236671,0.006778
2906.718874,0.006476
2907.201077,0.006772
2907.683280,0.007844
2908.165482,0.009399
2908.647685,0.011113
2909.129888,0.012522
2909.612091,0.013680
2910.094294,0.015251
2910.576497,0.016869
2911.058700,0.017833
2911.540902,0.018879
2912.023105,0.020363
2912.505308,0.021267
2912.987511,0.022021
2913.469714,0.023405
2913.951917,0.024013
2914.434120,0.024200
2914.916323,0.025474
2915.398525,0.025991
2915.880728,0.025747
2916.362931,0.026792
2916.845134,0.026973
2917.327337,0.026485
2917.809540,0.027377
2918.291743,0.027050
2918.773945,0.026545
2919.256148,0.027032
2919.738351,0.026029
2920.220554,0.025498
2920.702757,0.025361
2921.184960,0.024398
2921.667163,0.024109
2922.149366,0.023360
2922.631568,0.022405
2923.113771,0.021618
2923.595974,0.020403
2924.078177,0.019556
2924.560380,0.018581
2925.042583,0.017614
2925.524786,0.016700
2926.006988,0.015468
2926.489191,0.014452
2926.971394,0.013414
2927.453597,0.012329
2927.935800,0.011189
2928.418003,0.010017
2928.900206,0.009086
2929.382409,0.008227
2929.864611,0.007426
2930.346814,0.006644
2930.829017,0.005917
2931.311220,0.005167
2931.793423,0.004321
2932.275626,0.003643
2932.757829,0.003112
2933.240031,0.002598
2933.722234,0.002109
2934.204437,0.001647
2934.686640,0.001190
2935.168843,0.000944
2935.651046,0.000918
2936.133249,0.000772
2936.615452,0.000584
2937.097654,0.000439
2937.579857,0.000321
2938.062060,0.000273
2938.544263,0.000158
2939.026466,0.000096
2939.508669,0.000186
2939.990872,0.000183
2940.473074,0.000087
2940.955277,0.000052
2941.437480,0.000018
2941.919683,-0.000017
2942.401886,0.000051
2942.884089,0.000108
2943.366292,-0.000008
2943.848494,-0.000113
2944.330697,-0.000051
2944.812900,0.000074
2945.295103,0.000200
2945.777306,0.000181
2946.259509,-0.000005
2946.741712,-0.000044
2947.223915,0.000042
2947.706117,0.000013
2948.188320,-0.000058
2948.670523,-0.000099
2949.152726,-0.000067
2949.634929,0.000097
2950.117132,0.000202
2950.599335,0.000162
2951.081537,0.000128
2951.563740,0.000157
2952.045943,0.000222
2952.528146,0.000287
2953.010349,0.000361
2953.492552,0.000362
2953.974755,0.000277
2954.456958,0.000292
2954.939160,0.000268
2955.421363,0.000147
2955.903566,0.000166
2956.385769,0.000247
2956.867972,0.000346
2957.350175,0.000381
2957.832378,0.000273
2958.314580,0.000316
2958.796783,0.000452
2959.278986,0.000459
2959.761189,0.000407
2960.243392,0.000368
2960.725595,0.000359
2961.207798,0.000292
2961.690001,0.000245
2962.172203,0.000338
2962.654406,0.000408
2963.136609,0.000369
2963.618812,0.000261
2964.101015,0.000237
2964.583218,0.000382
2965.065421,0.000461
2965.547623,0.000428
2966.029826,0.000411
2966.512029,0.000348
2966.994232,0.000320
2967.476435,0.000410
2967.958638,0.000437
2968.440841,0.000394
2968.923044,0.000372
2969.405246,0.000388
2969.887449,0.000406
2970.369652,0.000332
2970.851855,0.000300
2971.334058,0.000405
2971.816261,0.000483
2972.298464,0.000512
2972.780666,0.000544
2973.262869,0.000560
2973.745072,0.000542
2974.227275,0.000451
2974.709478,0.000397
2975.191681,0.000448
2975.673884,0.000410
2976.156086,0.000320
2976.638289,0.000338
2977.120492,0.000375
2977.602695,0.000410
2978.084898,0.000446
2978.567101,0.000430
2979.049304,0.000394
2979.531507,0.000380
2980.013709,0.000366
2980.495912,0.000297
2980.978115,0.000286
2981.460318,0.000364
2981.942521,0.000395
2982.424724,0.000415
2982.906927,0.000382
2983.389129,0.000317
2983.871332,0.000347
2984.353535,0.000286
2984.835738,0.000185
2985.317941,0.000255
2985.800144,0.000354
2986.282347,0.000401
2986.764550,0.000297
2987.246752,0.000142
2987.728955,0.000198
2988.211158,0.000214
2988.693361,0.000118
2989.175564,0.000116
2989.657767,0.000148
2990.139970,0.000229
2990.622172,0.000333
2991.104375,0.000350
2991.586578,0.000308
2992.068781,0.000235
2992.550984,0.000175
2993.033187,0.000148
2993.515390,0.000140
2993.997593,0.000165
2994.479795,0.000159
2994.961998,0.000104
2995.444201,0.000126
2995.926404,0.000169
2996.408607,0.000106
2996.890810,0.000055
2997.373013,0.000121
2997.855215,0.000198
2998.337418,0.000126
2998.819621,0.000027
2999.301824,0.000077
2999.784027,0.000105
3000.266230,0.000092
3000.748433,0.000168
3001.230635,0.000231
3001.712838,0.000249
3002.195041,0.000174
3002.677244,0.000012
3003.159447,-0.000003
3003.641650,0.000038
3004.123853,-0.000025
3004.606056,0.000044
3005.088258,0.000205
3005.570461,0.000220
3006.052664,0.000147
3006.534867,0.000073
3007.017070,0.000053
3007.499273,0.000057
3007.981476,0.000072
3008.463678,0.000082
3008.945881,-0.000029
3009.428084,-0.000055
3009.910287,0.000122
3010.392490,0.000204
3010.874693,0.000195
3011.356896,0.000289
3011.839099,0.000334
3012.321301,0.000157
3012.803504,0.000028
3013.285707,0.000152
3013.767910,0.000200
3014.250113,0.000034
3014.732316,-0.000119
3015.214519,-0.000078
3015.696721,0.000136
3016.178924,0.000227
3016.661127,0.000138
3017.143330,0.000104
3017.625533,0.000126
3018.107736,0.000226
3018.589939,0.000325
3019.072142,0.000228
3019.554344,0.000217
3020.036547,0.000328
3020.518750,0.000255
3021.000953,0.000161
3021.483156,0.000158
3021.965359,0.000156
3022.447562,0.000206
3022.929764,0.000227
3023.411967,0.000162
3023.894170,0.000134
3024.376373,0.000142
3024.858576,0.000145
3025.340779,0.000165
3025.822982,0.000175
3026.305185,0.000185
3026.787387,0.000223
3027.269590,0.000234
3027.751793,0.000142
3028.233996,0.000012
3028.716199,0.000049
3029.198402,0.000185
3029.680605,0.000192
3030.162807,0.000093
3030.645010,0.000041
3031.127213,0.000125
3031.609416,0.000197
3032.091619,0.000134
3032.573822,0.000035
3033.056025,-0.000078
3033.538227,-0.000151
3034.020430,-0.000078
3034.502633,0.000067
3034.984836,0.000117
3035.467039,0.000059
3035.949242,0.000029
3036.431445,0.000074
3036.913648,0.000114
3037.395850,0.000043
3037.878053,-0.000021
3038.360256,0.000027
3038.842459,0.000013
3039.324662,-0.000060
3039.806865,-0.000090
3040.289068,-0.000074
3040.771270,-0.000022
3041.253473,0.000048
3041.735676,0.000125
3042.217879,0.000099
3042.700082,0.000042
3043.182285,0.000014
3043.664488,-0.000119
3044.146691,-0.000160
3044.628893,-0.000050
3045.111096,-0.000054
3045.593299,-0.000125
3046.075502,-0.000079
3046.557705,-0.000016
3047.039908,-0.000095
3047.522111,-0.000128
3048.004313,0.000023
3048.486516,0.000113
3048.968719,0.000083
3049.450922,0.000087
3049.933125,0.000057
3050.415328,-0.000008
3050.897531,0.000052
3051.379734,0.000135
3051.861936,0.000071
3052.344139,-0.000067
3052.826342,-0.000123
3053.308545,-0.000112
3053.790748,-0.000164
3054.272951,-0.000192
3054.755154,-0.000139
3055.237356,-0.000092
3055.719559,-0.000035
3056.201762,-0.000020
3056.683965,-0.000046
3057.166168,-0.000071
3057.648371,-0.000148
3058.130574,-0.000182
3058.612777,-0.000107
3059.094979,-0.000032
3059.577182,-0.000082
3060.059385,-0.000142
3060.541588,-0.000119
3061.023791,-0.000144
3061.505994,-0.000087
3061.988197,0.000031
3062.470399,-0.000025
3062.952602,-0.000091
3063.434805,-0.000055
3063.917008,-0.000006
3064.399211,-0.000011
3064.881414,-0.000030
3065.363617,0.000082
3065.845819,0.000140
3066.328022,-0.000034
3066.810225,-0.000187
3067.292428,-0.000155
3067.774631,-0.000106
3068.256834,-0.000136
3068.739037,-0.000116
3069.221240,-0.000023
3069.703442,0.000036
3070.185645,0.000052
3070.667848,0.000028
3071.150051,-0.000018
3071.632254,0.000000
3072.114457,0.000001
3072.596660,-0.000102
3073.078862,-0.000150
3073.561065,-0.000151
3074.043268,-0.000176
3074.525471,-0.000088
3075.007674,0.000071
3075.489877,0.000099
3075.972080,-0.000045
3076.454283,-0.000160
3076.936485,-0.000123
3077.418688,-0.000086
3077.900891,-0.000057
3078.383094,-0.000002
3078.865297,0.000003
3079.347500,0.000012
3079.829703,0.000020
3080.311905,-0.000014
3080.794108,-0.000116
3081.276311,-0.000186
3081.758514,-0.000060
3082.240717,-0.000032
3082.722920,-0.000209
3083.205123,-0.000241
3083.687326,-0.000178
3084.169528,-0.000254
3084.651731,-0.000361
3085.133934,-0.000301
3085.616137,-0.000234
3086.098340,-0.000340
3086.580543,-0.000415
3087.062746,-0.000407
3087.544948,-0.000355
3088.027151,-0.000209
3088.509354,-0.000104
3088.991557,-0.000071
3089.473760,-0.000006
3089.955963,0.000044
3090.438166,0.000034
3090.920368,0.000010
3091.402571,-0.000003
3091.884774,-0.000012
3092.366977,-0.000101
3092.849180,-0.000277
3093.331383,-0.000335
3093.813586,-0.000253
3094.295789,-0.000176
3094.777991,-0.000144
3095.260194,-0.000088
3095.742397,0.000025
3096.224600,0.000007
3096.706803,-0.000093
3097.189006,-0.000108
3097.671209,-0.000131
3098.153411,-0.000090
3098.635614,-0.000028
3099.117817,-0.000011
3099.600020,0.000087
3100.082223,0.000095
3100.564426,0.000043
3101.046629,0.000062
3101.528832,-0.000061
3102.011034,-0.000184
3102.493237,-0.000109
3102.975440,-0.000074
3103.457643,-0.000078
3103.939846,0.000049
3104.422049,0.000126
3104.904252,0.000067
3105.386454,0.000042
3105.868657,0.000042
3106.350860,0.000002
3106.833063,-0.000065
3107.315266,-0.000130
3107.797469,-0.000125
3108.279672,-0.000086
3108.761875,-0.000165
3109.244077,-0.000296
3109.726280,-0.000243
3110.208483,-0.000085
3110.690686,-0.000056
3111.172889,-0.000081
3111.655092,-0.000044
3112.137295,0.000020
3112.619497,0.000043
3113.101700,-0.000055
3113.583903,-0.000154
3114.066106,-0.000116
3114.548309,-0.000100
3115.030512,-0.000110
3115.512715,-0.000021
3115.994918,0.000028
3116.477120,-0.000020
3116.959323,-0.000040
3117.441526,-0.000010
3117.923729,0.000010
3118.405932,0.000048
3118.888135,0.000152
3119.370338,0.000185
3119.852540,0.000056
3120.334743,-0.000038
3120.816946,0.000027
3121.299149,0.000006
3121.781352,-0.000118
3122.263555,-0.000151
3122.745758,-0.000233
3123.227960,-0.000279
3123.710163,-0.000134
3124.192366,-0.000018
3124.674569,0.000020
3125.156772,-0.000011
3125.638975,-0.000071
3126.121178,-0.000020
3126.603381,0.000005
3127.085583,-0.000072
3127.567786,-0.000051
3128.049989,0.000028
3128.532192,-0.000035
3129.014395,-0.000116
3129.496598,-0.000090
3129.978801,0.000011
3130.461003,0.000205
3130.943206,0.000241
3131.425409,0.000005
3131.907612,-0.000143
3132.389815,-0.000093
3132.872018,-0.000083
3133.354221,-0.000173
3133.836424,-0.000213
3134.318626,-0.000255
3134.800829,-0.000304
3135.283032,-0.000218
3135.765235,-0.000200
3136.247438,-0.000248
3136.729641,-0.000204
3137.211844,-0.000240
3137.694046,-0.000262
3138.176249,-0.000214
3138.658452,-0.000209
3139.140655,-0.000153
3139.622858,-0.000148
3140.105061,-0.000233
3140.587264,-0.000241
3141.069467,-0.000236
3141.551669,-0.000286
3142.033872,-0.000309
3142.516075,-0.000263
3142.998278,-0.000153
3143.480481,-0.000067
3143.962684,-0.000131
3144.444887,-0.000260
3144.927089,-0.000267
3145.409292,-0.000156
3145.891495,-0.000080
3146.373698,-0.000127
3146.855901,-0.000147
3147.338104,-0.000082
3147.820307,-0.000118
3148.302510,-0.000149
3148.784712,-0.000071
3149.266915,-0.000080
3149.749118,-0.000119
3150.231321,-0.000134
3150.713524,-0.000227
3151.195727,-0.000256
3151.677930,-0.000200
3152.160132,-0.000230
3152.642335,-0.000315
3153.124538,-0.000295
3153.606741,-0.000177
3154.088944,-0.000078
3154.571147,-0.000042
3155.053350,-0.000141
3155.535552,-0.000304
3156.017755,-0.000312
3156.499958,-0.000269
3156.982161,-0.000256
3157.464364,-0.000183
3157.946567,-0.000209
3158.428770,-0.000345
3158.910973,-0.000393
3159.393175,-0.000334
3159.875378,-0.000146
3160.357581,0.000042
3160.839784,0.000081
3161.321987,0.000081
3161.804190,-0.000022
3162.286393,-0.000168
3162.768595,-0.000076
3163.250798,0.000086
3163.733001,0.000113
3164.215204,0.000127
3164.697407,0.000097
3165.179610,-0.000026
3165.661813,-0.000087
3166.144016,-0.000120
3166.626218,-0.000193
3167.108421,-0.000228
3167.590624,-0.000168
3168.072827,0.000000
3168.555030,0.000027
3169.037233,-0.000118
3169.519436,-0.000122
3170.001638,-0.000060
3170.483841,0.000000
3170.966044,0.000050
3171.448247,-0.000040
3171.930450,-0.000125
3172.412653,-0.000139
3172.894856,-0.000157
3173.377059,-0.000146
3173.859261,-0.000086
3174.341464,0.000020
3174.823667,0.000093
3175.305870,0.000041
3175.788073,-0.000069
3176.270276,-0.000200
3176.752479,-0.000285
3177.234681,-0.000161
3177.716884,-0.000092
3178.199087,-0.000230
3178.681290,-0.000270
3179.163493,-0.000225
3179.645696,-0.000136
3180.127899,-0.000008
3180.610102,0.000024
3181.092304,0.000078
3181.574507,0.000161
3182.056710,0.000156
3182.538913,0.000116
3183.021116,0.000148
3183.503319,0.000202
3183.985522,0.000105
3184.467724,-0.000012
3184.949927,0.000028
3185.432130,0.000075
3185.914333,0.000025
3186.396536,-0.000024
3186.878739,-0.000030
3187.360942,-0.000026
3187.843144,-0.000035
3188.325347,-0.000129
3188.807550,-0.000136
3189.289753,0.000124
3189.771956,0.000256
3190.254159,0.000081
3190.736362,-0.000004
3191.218565,0.000056
3191.700767,0.000072
3192.182970,0.000023
3192.665173,-0.000108
3193.147376,-0.000197
3193.629579,-0.000081
3194.111782,0.000164
3194.593985,0.000210
3195.076187,-0.000041
3195.558390,-0.000134
3196.040593,-0.000048
3196.522796,-0.000160
3197.004999,-0.000239
3197.487202,-0.000024
3197.969405,0.000200
3198.451608,0.000183
3198.933810,0.000197
3199.416013,0.000279
3199.898216,0.000050
3200.380419,-0.000102
3200.862622,0.000127
3201.344825,0.000193
3201.827028,0.000090
3202.309230,0.000118
3202.791433,0.000134
3203.273636,0.000127
3203.755839,0.000125
3204.238042,0.000081
3204.720245,0.000062
3205.202448,0.000044
3205.684651,0.000045
3206.166853,0.000112
3206.649056,0.000131
3207.131259,0.000074
3207.613462,0.000023
3208.095665,0.000111
3208.577868,0.000360
3209.060071,0.000498
3209.542273,0.000446
3210.024476,0.000315
3210.506679,0.000032
3210.988882,-0.000171
3211.471085,-0.000037
3211.953288,0.000024
3212.435491,-0.000087
3212.917693,-0.000064
3213.399896,-0.000116
3213.882099,-0.000228
3214.364302,-0.000083
3214.846505,0.000229
3215.328708,0.000395
3215.810911,0.000260
3216.293114,0.000199
3216.775316,0.000288
3217.257519,0.000201
3217.739722,0.000198
3218.221925,0.000270
3218.704128,0.000121
3219.186331,0.000027
3219.668534,0.000119
3220.150736,0.000127
3220.632939,0.000018
3221.115142,0.000022
3221.597345,0.000070
3222.079548,0.000065
3222.561751,0.000160
3223.043954,0.000148
3223.526157,-0.000006
3224.008359,0.000106
3224.490562,0.000258
3224.972765,0.000103
3225.454968,-0.000043
3225.937171,-0.000042
3226.419374,-0.000046
3226.901577,0.000055
3227.383779,0.000266
3227.865982,0.000330
3228.348185,0.000240
3228.830388,0.000261
3229.312591,0.000281
3229.794794,0.000102
3230.276997,0.000026
3230.759200,0.000078
3231.241402,0.000019
3231.723605,0.000023
3232.205808,0.000082
3232.688011,-0.000027
3233.170214,-0.000101
3233.652417,0.000009
3234.134620,0.000055
3234.616822,0.000045
3235.099025,0.000122
3235.581228,0.000188
3236.063431,0.000255
3236.545634,0.000266
3237.027837,0.000112
3237.510040,-0.000002
3237.992243,0.000105
3238.474445,0.000287
3238.956648,0.000266
3239.438851,0.000174
3239.921054,0.000281
3240.403257,0.000383
3240.885460,0.000292
3241.367663,0.000147
3241.849865,0.000155
3242.332068,0.000309
3242.814271,0.000367
3243.296474,0.000309
3243.778677,0.000294
3244.260880,0.000312
3244.743083,0.000305
3245.225285,0.000170
3245.707488,-0.000063
3246.189691,-0.000015
3246.671894,0.000159
3247.154097,0.000043
3247.636300,0.000067
3248.118503,0.000330
3248.600706,0.000346
3249.082908,0.000285
3249.565111,0.000310
3250.047314,0.000215
3250.529517,0.000142
3251.011720,0.000244
3251.493923,0.000363
3251.976126,0.000365
3252.458328,0.000260
3252.940531,0.000192
3253.422734,0.000171
3253.904937,0.000115
3254.387140,0.000144
3254.869343,0.000208
3255.351546,0.000244
3255.833749,0.000293
3256.315951,0.000225
3256.798154,0.000176
3257.280357,0.000204
3257.762560,0.000136
3258.244763,0.000135
3258.726966,0.000201
3259.209169,0.000127
3259.691371,0.000051
3260.173574,0.000102
3260.655777,0.000131
3261.137980,0.000097
3261.620183,0.000094
3262.102386,0.000131
3262.584589,0.000203
3263.066792,0.000243
3263.548994,0.000159
3264.031197,0.000045
3264.513400,-0.000042
3264.995603,-0.000183
3265.477806,-0.000232
3265.960009,-0.000113
3266.442212,-0.000111
3266.924414,-0.000147
3267.406617,-0.000059
3267.888820,0.000008
3268.371023,0.000180
3268.853226,0.000378
3269.335429,0.000335
3269.817632,0.000175
3270.299835,0.000124
3270.782037,0.000324
3271.264240,0.000492
3271.746443,0.000315
3272.228646,0.000159
3272.710849,0.000202
3273.193052,0.000264
3273.675255,0.000355
3274.157457,0.000355
3274.639660,0.000263
3275.121863,0.000185
3275.604066,0.000019
3276.086269,-0.000081
3276.568472,-0.000005
3277.050675,0.000075
3277.532877,0.000183
3278.015080,0.000258
3278.497283,0.000232
3278.979486,0.000223
3279.461689,0.000140
3279.943892,0.000077
3280.426095,0.000212
3280.908298,0.000282
3281.390500,0.000196
3281.872703,0.000077
3282.354906,-0.000032
3282.837109,-0.000049
3283.319312,-0.000110
3283.801515,-0.000215
3284.283718,-0.000190
3284.765920,-0.000165
3285.248123,-0.000118
3285.730326,0.000028
3286.212529,0.000073
3286.694732,0.000021
3287.176935,0.000022
3287.659138,0.000022
3288.141341,-0.000011
3288.623543,0.000048
3289.105746,0.000161
3289.587949,0.000075
3290.070152,-0.000030
3290.552355,0.000188
3291.034558,0.000318
3291.516761,0.000151
3291.998963,0.000042
3292.481166,-0.000135
3292.963369,-0.000295
3293.445572,-0.000109
3293.927775,0.000072
3294.409978,0.000032
3294.892181,0.000003
3295.374384,-0.000053
3295.856586,-0.000200
3296.338789,-0.000225
3296.820992,-0.000095
3297.303195,0.000058
3297.785398,0.000173
3298.267601,0.000178
3298.749804,0.000047
3299.232006,-0.000123
3299.714209,-0.000163
3300.196412,-0.000182
3300.678615,-0.000185
3301.160818,-0.000008
3301.643021,-0.000001
3302.125224,-0.000158
3302.607426,-0.000067
3303.089629,0.000129
3303.571832,0.000178
3304.054035,0.000093
3304.536238,0.000033
3305.018441,0.000022
3305.500644,0.000054
3305.982847,0.000099
3306.465049,-0.000022
3306.947252,-0.000021
3307.429455,0.000229
3307.911658,0.000253
3308.393861,0.000104
3308.876064,0.000086
3309.358267,0.000094
3309.840469,0.000116
3310.322672,0.000143
3310.804875,-0.000029
3311.287078,-0.000144
3311.769281,0.000087
3312.251484,0.000275
3312.733687,0.000260
3313.215890,0.000298
3313.698092,0.000323
3314.180295,0.000200
3314.662498,-0.000006
3315.144701,-0.000089
3315.626904,0.000092
3316.109107,0.000325
3316.591310,0.000318
3317.073512,0.000113
3317.555715,0.000073
3318.037918,0.000300
3318.520121,0.000347
3319.002324,0.000055
3319.484527,-0.000105
3319.966730,0.000047
3320.448933,0.000163
3320.931135,0.000171
3321.413338,0.000165
3321.895541,0.000069
3322.377744,0.000047
3322.859947,0.000133
3323.342150,0.000211
3323.824353,0.000303
3324.306555,0.000280
3324.788758,0.000255
3325.270961,0.000343
3325.753164,0.000373
3326.235367,0.000289
3326.717570,0.000134
3327.199773,0.000062
3327.681976,0.000036
3328.164178,-0.000011
3328.646381,0.000103
3329.128584,0.000180
3329.610787,0.000113
3330.092990,0.000003
3330.575193,-0.000156
3331.057396,-0.000218
3331.539598,-0.000152
3332.021801,-0.000016
3332.504004,0.000064
3332.986207,-0.000028
3333.468410,-0.000130
3333.950613,-0.000070
3334.432816,0.000053
3334.915018,-0.000068
3335.397221,-0.000220
3335.879424,-0.000066
3336.361627,0.000004
3336.843830,-0.000064
3337.326033,-0.000026
3337.808236,-0.000024
3338.290439,-0.000004
3338.772641,-0.000028
3339.254844,-0.000160
3339.737047,-0.000151
3340.219250,-0.000134
3340.701453,-0.000203
3341.183656,-0.000169
3341.665859,-0.000107
3342.148061,-0.000105
3342.630264,-0.000188
3343.112467,-0.000277
3343.594670,-0.000277
3344.076873,-0.000293
3344.559076,-0.000224
3345.041279,-0.000072
3345.523482,-0.000134
3346.005684,-0.000184
3346.487887,-0.000043
3346.970090,-0.000147
3347.452293,-0.000378
3347.934496,-0.000307
3348.416699,-0.000135
3348.898902,-0.000078
3349.381104,-0.000114
3349.863307,-0.000219
3350.345510,-0.000332
3350.827713,-0.000370
3351.309916,-0.000213
3351.792119,-0.000155
3352.274322,-0.000264
3352.756525,-0.000203
3353.238727,-0.000177
3353.720930,-0.000242
3354.203133,-0.000216
3354.685336,-0.000129
3355.167539,0.000039
3355.649742,0.000100
3356.131945,0.000025
3356.614147,-0.000006
3357.096350,0.000003
3357.578553,0.000115
3358.060756,0.000126
3358.542959,-0.000023
3359.025162,0.000076
3359.507365,0.000229
3359.989568,0.000133
3360.471770,0.000009
3360.953973,-0.000014
3361.436176,0.000075
3361.918379,0.000075
3362.400582,-0.000128
3362.882785,-0.000261
3363.364988,-0.000233
3363.847190,-0.000143
3364.329393,-0.000082
3364.811596,-0.000030
3365.293799,0.000096
3365.776002,0.000090
3366.258205,-0.000050
3366.740408,-0.000078
3367.222610,-0.000090
3367.704813,-0.000047
3368.187016,0.000109
3368.669219,0.000046
3369.151422,-0.000133
3369.633625,-0.000075
3370.115828,0.000055
3370.598031,0.000085
3371.080233,0.000098
3371.562436,0.000048
3372.044639,-0.000074
3372.526842,-0.000108
3373.009045,-0.000095
3373.491248,-0.000142
3373.973451,-0.000185
3374.455653,-0.000172
3374.937856,-0.000107
3375.420059,0.000042
3375.902262,0.000174
3376.384465,0.000040
3376.866668,-0.000137
3377.348871,-0.000094
3377.831074,-0.000027
3378.313276,0.000093
3378.795479,0.000232
3379.277682,0.000243
3379.759885,0.000224
3380.242088,0.000165
3380.724291,0.000138
3381.206494,0.000141
3381.688696,0.000126
3382.170899,0.000233
3382.653102,0.000267
3383.135305,0.000202
3383.617508,0.000253
3384.099711,0.000306
3384.581914,0.000364
3385.064117,0.000387
3385.546319,0.000393
3386.028522,0.000400
3386.510725,0.000147
3386.992928,-0.000040
3387.475131,0.000010
3387.957334,-0.000029
3388.439537,-0.000005
3388.921739,0.000103
3389.403942,0.000187
3389.886145,0.000275
3390.368348,0.000397
3390.850551,0.000572
3391.332754,0.000560
3391.814957,0.000473
3392.297160,0.000437
3392.779362,0.000239
3393.261565,0.000189
3393.743768,0.000253
3394.225971,0.000020
3394.708174,-0.000062
3395.190377,0.000150
3395.672580,0.000210
3396.154782,0.000106
3396.636985,0.000018
3397.119188,0.000142
3397.601391,0.000239
3398.083594,0.000063
3398.565797,-0.000008
3399.048000,0.000033
3399.530202,0.000115
3400.012405,0.000229
3400.494608,0.000236
3400.976811,0.000310
3401.459014,0.000360
3401.941217,0.000261
3402.423420,0.000187
3402.905623,0.000192
3403.387825,0.000214
3403.870028,0.000260
3404.352231,0.000386
3404.834434,0.000363
3405.316637,0.000213
3405.798840,0.000279
3406.281043,0.000356
3406.763245,0.000263
3407.245448,0.000293
3407.727651,0.000333
3408.209854,0.000159
3408.692057,0.000195
3409.174260,0.000401
3409.656463,0.000350
3410.138666,0.000228
3410.620868,0.000199
3411.103071,0.000279
3411.585274,0.000346
3412.067477,0.000181
3412.549680,0.000074
3413.031883,0.000119
3413.514086,0.000095
3413.996288,0.000139
3414.478491,0.000199
3414.960694,-0.000001
3415.442897,-0.000100
3415.925100,0.000189
3416.407303,0.000364
3416.889506,0.000340
3417.371709,0.000475
3417.853911,0.000490
3418.336114,0.000200
3418.818317,0.000105
3419.300520,0.000320
3419.782723,0.000460
3420.264926,0.000452
3420.747129,0.000375
3421.229331,0.000348
3421.711534,0.000487
3422.193737,0.000568
3422.675940,0.000509
3423.158143,0.000417
3423.640346,0.000292
3424.122549,0.000260
3424.604751,0.000278
3425.086954,0.000134
3425.569157,0.000026
3426.051360,0.000116
3426.533563,0.000127
3427.015766,-0.000004
3427.497969,-0.000035
3427.980172,0.000107
3428.462374,0.000228
3428.944577,0.000113
3429.426780,-0.000031
3429.908983,0.000025
3430.391186,0.000120
3430.873389,0.000177
3431.355592,0.000156
3431.837794,0.000074
3432.319997,0.000185
3432.802200,0.000396
3433.284403,0.000432
3433.766606,0.000401
3434.248809,0.000206
3434.731012,-0.000133
3435.213215,-0.000035
3435.695417,0.000273
3436.177620,0.000275
3436.659823,0.000222
3437.142026,0.000237
3437.624229,0.000313
3438.106432,0.000389
3438.588635,0.000343
3439.070837,0.000301
3439.553040,0.000320
3440.035243,0.000486
3440.517446,0.000583
3440.999649,0.000357
3441.481852,0.000401
3441.964055,0.000821
3442.446258,0.000820
3442.928460,0.000432
3443.410663,0.000315
3443.892866,0.000429
3444.375069,0.000354
3444.857272,0.000205
3445.339475,0.000358
3445.821678,0.000657
3446.303880,0.000710
3446.786083,0.000584
3447.268286,0.000548
3447.750489,0.000603
3448.232692,0.000579
3448.714895,0.000441
3449.197098,0.000352
3449.679301,0.000404
3450.161503,0.000338
3450.643706,0.000088
3451.125909,0.000111
3451.608112,0.000355
3452.090315,0.000596
3452.572518,0.000892
3453.054721,0.000864
3453.536923,0.000657
3454.019126,0.000626
3454.501329,0.000462
3454.983532,0.000259
3455.465735,0.000212
3455.947938,0.000359
3456.430141,0.000483
3456.912343,0.000262
3457.394546,0.000243
3457.876749,0.000479
3458.358952,0.000442
3458.841155,0.000340
3459.323358,0.000202
3459.805561,-0.000053
3460.287764,-0.000170
3460.769966,-0.000096
3461.252169,0.000109
3461.734372,0.000340
3462.216575,0.000376
3462.698778,0.000220
3463.180981,0.000130
3463.663184,0.000033
3464.145386,-0.000088
3464.627589,0.000078
3465.109792,0.000283
3465.591995,0.000222
3466.074198,0.000121
3466.556401,0.000054
3467.038604,0.000014
3467.520807,0.000074
3468.003009,0.000216
3468.485212,0.000383
3468.967415,0.000434
3469.449618,0.000329
3469.931821,0.000260
3470.414024,0.000266
3470.896227,0.000210
3471.378429,0.000151
3471.860632,0.000172
3472.342835,0.000247
3472.825038,0.000335
3473.307241,0.000361
3473.789444,0.000396
3474.271647,0.000401
3474.753850,0.000252
3475.236052,0.000213
3475.718255,0.000276
3476.200458,0.000186
3476.682661,0.000075
3477.164864,0.000003
3477.647067,-0.000097
3478.129270,-0.000111
3478.611472,-0.000082
3479.093675,-0.000194
3479.575878,-0.000160
3480.058081,0.000146
3480.540284,0.000225
3481.022487,0.000218
3481.504690,0.000342
3481.986893,0.000208
3482.469095,0.000019
3482.951298,-0.000003
3483.433501,0.000014
3483.915704,0.000187
3484.397907,0.000353
3484.880110,0.000226
3485.362313,0.000005
3485.844515,-0.000012
3486.326718,0.000100
3486.808921,0.000255
3487.291124,0.000330
3487.773327,0.000082
3488.255530,-0.000142
3488.737733,-0.000139
3489.219935,-0.000216
3489.702138,-0.000152
3490.184341,0.000084
3490.666544,0.000100
3491.148747,0.000028
3491.630950,0.000066
3492.113153,0.000104
3492.595356,0.000018
3493.077558,-0.000273
3493.559761,-0.000443
3494.041964,-0.000267
3494.524167,-0.000192
3495.006370,-0.000157
3495.488573,0.000129
3495.970776,0.000243
3496.452978,0.000147
3496.935181,0.000185
3497.417384,0.000358
3497.899587,0.000428
3498.381790,0.000242
3498.863993,0.000171
3499.346196,0.000241
3499.828399,0.000117
3500.310601,0.000065
3500.792804,0.000017
3501.275007,-0.000236
3501.757210,-0.000369
3502.239413,-0.000358
3502.721616,-0.000316
3503.203819,-0.000385
3503.686021,-0.000482
3504.168224,-0.000359
3504.650427,-0.000352
3505.132630,-0.000297
3505.614833,-0.000071
3506.097036,-0.000143
3506.579239,-0.000270
3507.061442,-0.000259
3507.543644,-0.000154
3508.025847,-0.000013
3508.508050,-0.000106
3508.990253,-0.000217
3509.472456,-0.000180
3509.954659,-0.000148
3510.436862,-0.000171
3510.919064,-0.000176
3511.401267,-0.000210
3511.883470,-0.000283
3512.365673,-0.000121
3512.847876,0.000023
3513.330079,-0.000061
3513.812282,-0.000027
3514.294484,0.000035
3514.776687,0.000018
3515.258890,0.000090
3515.741093,0.000094
3516.223296,-0.000073
3516.705499,-0.000107
3517.187702,0.000066
3517.669905,0.000115
3518.152107,-0.000024
3518.634310,-0.000042
3519.116513,0.000026
3519.598716,-0.000032
3520.080919,-0.000024
3520.563122,-0.000013
3521.045325,-0.000075
3521.527527,-0.000043
3522.009730,-0.000003
3522.491933,0.000068
3522.974136,-0.000100
3523.456339,-0.000387
3523.938542,-0.000222
3524.420745,-0.000108
3524.902948,-0.000163
3525.385150,0.000050
3525.867353,0.000259
3526.349556,0.000282
3526.831759,0.000163
3527.313962,-0.000036
3527.796165,-0.000155
3528.278368,-0.000160
3528.760570,-0.000195
3529.242773,-0.000202
3529.724976,0.000016
3530.207179,0.000184
3530.689382,0.000107
3531.171585,-0.000031
3531.653788,-0.000182
3532.135991,-0.000198
3532.618193,-0.000036
3533.100396,0.000130
3533.582599,0.000204
3534.064802,-0.000056
3534.547005,-0.000450
3535.029208,-0.000410
3535.511411,-0.000142
3535.993613,-0.000016
3536.475816,0.000012
3536.958019,-0.000086
3537.440222,-0.000273
3537.922425,-0.000287
3538.404628,-0.000089
3538.886831,-0.000002
3539.369034,-0.000041
3539.851236,-0.000013
3540.333439,0.000061
3540.815642,0.000136
3541.297845,0.000075
3541.780048,0.000023
3542.262251,0.000114
3542.744454,0.000091
3543.226656,0.000095
3543.708859,0.000148
3544.191062,0.000006
3544.673265,-0.000068
3545.155468,0.000161
3545.637671,0.000485
3546.119874,0.000568
3546.602076,0.000373
3547.084279,0.000219
3547.566482,0.000218
3548.048685,0.000210
3548.530888,0.000182
3549.013091,0.000186
3549.495294,0.000259
3549.977497,0.000460
3550.459699,0.000472
3550.941902,0.000209
3551.424105,0.000212
3551.906308,0.000473
3552.388511,0.000552
3552.870714,0.000464
3553.352917,0.000421
3553.835119,0.000397
3554.317322,0.000268
3554.799525,0.000299
3555.281728,0.000540
3555.763931,0.000576
3556.246134,0.000518
3556.728337,0.000569
3557.210540,0.000737
3557.692742,0.001113
3558.174945,0.001282
3558.657148,0.001148
3559.139351,0.001234
3559.621554,0.001331
3560.103757,0.001178
3560.585960,0.001278
3561.068162,0.001689
3561.550365,0.001762
3562.032568,0.001568
3562.514771,0.001677
3562.996974,0.001869
3563.479177,0.001931
3563.961380,0.002059
3564.443583,0.002180
3564.925785,0.002290
3565.407988,0.002340
3565.890191,0.002292
3566.372394,0.002391
3566.854597,0.002581
3567.336800,0.002633
3567.819003,0.002703
3568.301205,0.002961
3568.783408,0.003158
3569.265611,0.003164
3569.747814,0.003137
3570.230017,0.003073
3570.712220,0.003013
3571.194423,0.003102
3571.676626,0.003367
3572.158828,0.003523
3572.641031,0.003470
3573.123234,0.003464
3573.605437,0.003398
3574.087640,0.003202
3574.569843,0.002963
3575.052046,0.002833
3575.534248,0.003073
3576.016451,0.003212
3576.498654,0.003062
3576.980857,0.003072
3577.463060,0.003113
3577.945263,0.003113
3578.427466,0.003152
3578.909668,0.003139
3579.391871,0.003120
3579.874074,0.002958
3580.356277,0.002728
3580.838480,0.002767
3581.320683,0.002738
3581.802886,0.002277
3582.285089,0.001930
3582.767291,0.001905
3583.249494,0.001779
3583.731697,0.001698
3584.213900,0.001737
3584.696103,0.001615
3585.178306,0.001481
3585.660509,0.001555
3586.142711,0.001790
3586.624914,0.001958
3587.107117,0.002009
3587.589320,0.002209
3588.071523,0.002545
3588.553726,0.002788
3589.035929,0.003030
3589.518132,0.003498
3590.000334,0.004126
3590.482537,0.004508
3590.964740,0.003836
3591.446943,0.002155
3591.929146,0.000943
3592.411349,0.000788
3592.893552,0.000816
3593.375754,0.000693
3593.857957,0.000732
3594.340160,0.000861
3594.822363,0.001043
3595.304566,0.001301
3595.786769,0.001478
3596.268972,0.001546
3596.751175,0.001619
3597.233377,0.001967
3597.715580,0.002308
3598.197783,0.002231
3598.679986,0.002236
3599.162189,0.002395
3599.644392,0.002456
3600.126595,0.002663
3600.608797,0.002903
3601.091000,0.002946
3601.573203,0.002800
3602.055406,0.002726
3602.537609,0.002878
3603.019812,0.002846
3603.502015,0.002733
3603.984217,0.003059
3604.466420,0.003376
3604.948623,0.003238
3605.430826,0.003114
3605.913029,0.003154
3606.395232,0.003129
3606.877435,0.003055
3607.359638,0.002935
3607.841840,0.002880
3608.324043,0.002786
3608.806246,0.002546
3609.288449,0.002565
3609.770652,0.002605
3610.252855,0.002191
3610.735058,0.001891
3611.217260,0.001898
3611.699463,0.001959
3612.181666,0.002043
3612.663869,0.001973
3613.146072,0.001790
3613.628275,0.001576
3614.110478,0.001248
3614.592681,0.001138
3615.074883,0.001198
3615.557086,0.000998
3616.039289,0.000704
3616.521492,0.000438
3617.003695,0.000218
3617.485898,0.000322
3617.968101,0.000533
3618.450303,0.000431
3618.932506,0.000400
3619.414709,0.000405
3619.896912,0.000250
3620.379115,0.000289
3620.861318,0.000317
3621.343521,0.000095
3621.825724,-0.000145
3622.307926,-0.000189
3622.790129,-0.000195
3623.272332,-0.000399
3623.754535,-0.000486
3624.236738,-0.000440
3624.718941,-0.000414
3625.201144,-0.000235
3625.683346,-0.000107
3626.165549,0.000004
3626.647752,0.000200
3627.129955,0.000129
3627.612158,-0.000052
3628.094361,-0.000033
3628.576564,-0.000047
3629.058767,-0.000126
3629.540969,-0.000027
3630.023172,0.000012
3630.505375,-0.000075
3630.987578,-0.000087
3631.469781,-0.000157
3631.951984,-0.000199
3632.434187,-0.000115
3632.916389,-0.000113
3633.398592,-0.000060
3633.880795,0.000090
3634.362998,-0.000004
3634.845201,-0.000189
3635.327404,-0.000164
3635.809607,-0.000037
3636.291809,0.000056
3636.774012,0.000002
3637.256215,-0.000032
3637.738418,0.000107
3638.220621,0.000204
3638.702824,0.000218
3639.185027,0.000235
3639.667230,0.000238
3640.149432,0.000157
3640.631635,0.000112
3641.113838,0.000182
3641.596041,0.000239
3642.078244,0.000133
3642.560447,-0.000078
3643.042650,-0.000088
3643.524852,0.000073
3644.007055,0.000111
3644.489258,0.000045
3644.971461,0.000034
3645.453664,0.000173
3645.935867,0.000216
3646.418070,0.000145
3646.900273,0.000208
3647.382475,0.000244
3647.864678,0.000217
3648.346881,0.000218
3648.829084,0.000355
3649.311287,0.000554
3649.793490,0.000365
3650.275693,0.000006
3650.757895,-0.000036
3651.240098,0.000114
3651.722301,0.000186
3652.204504,-0.000004
3652.686707,-0.000338
3653.168910,-0.000380
3653.651113,-0.000060
3654.133316,0.000072
3654.615518,-0.000033
3655.097721,-0.000097
3655.579924,-0.000163
3656.062127,-0.000134
3656.544330,-0.000070
3657.026533,-0.000212
3657.508736,-0.000378
3657.990938,-0.000235
3658.473141,0.000022
3658.955344,-0.000019
3659.437547,-0.000079
3659.919750,0.000072
3660.401953,0.000077
3660.884156,-0.000119
3661.366359,-0.000260
3661.848561,-0.000206
3662.330764,-0.000085
3662.812967,-0.000166
3663.295170,-0.000306
3663.777373,-0.000249
3664.259576,-0.000202
3664.741779,-0.000271
3665.223981,-0.000360
3665.706184,-0.000424
3666.188387,-0.000278
3666.670590,-0.000105
3667.152793,-0.000089
3667.634996,0.000017
3668.117199,0.000045
3668.599401,-0.000074
3669.081604,0.000011
3669.563807,0.000124
3670.046010,0.000123
3670.528213,0.000229
3671.010416,0.000087
3671.492619,-0.000405
3671.974822,-0.000402
3672.457024,-0.000051
3672.939227,0.000029
3673.421430,0.000070
3673.903633,0.000177
3674.385836,0.000073
3674.868039,0.000019
3675.350242,0.000124
3675.832444,0.000209
3676.314647,0.000135
3676.796850,-0.000183
3677.279053,-0.000199
3677.761256,-0.000012
3678.243459,-0.000132
3678.725662,-0.000237
3679.207865,-0.000129
3679.690067,-0.000061
3680.172270,-0.000151
3680.654473,-0.000219
3681.136676,-0.000172
3681.618879,-0.000173
3682.101082,-0.000044
3682.583285,0.000065
3683.065487,-0.000175
3683.547690,-0.000272
3684.029893,-0.000090
3684.512096,-0.000082
3684.994299,-0.000106
3685.476502,0.000103
3685.958705,0.000268
3686.440908,0.000190
3686.923110,-0.000003
3687.405313,-0.000135
3687.887516,-0.000042
3688.369719,0.000254
3688.851922,0.000403
3689.334125,0.000176
3689.816328,0.000067
3690.298530,0.000170
3690.780733,0.000190
3691.262936,0.000212
3691.745139,0.000081
3692.227342,-0.000240
3692.709545,-0.000332
3693.191748,-0.000280
3693.673951,-0.000050
3694.156153,0.000248
3694.638356,0.000061
3695.120559,-0.000170
3695.602762,-0.000018
3696.084965,-0.000003
3696.567168,-0.000000
3697.049371,0.000187
3697.531573,0.000308
3698.013776,0.000399
3698.495979,0.000314
3698.978182,0.000181
3699.460385,0.000219
3699.942588,0.000102
3700.424791,0.000064
3700.906993,0.000367
3701.389196,0.000495
3701.871399,0.000274
3702.353602,0.000119
3702.835805,0.000129
3703.318008,0.000213
3703.800211,0.000344
3704.282414,0.000289
3704.764616,0.000050
3705.246819,-0.000056
3705.729022,0.000041
3706.211225,0.000081
3706.693428,-0.000114
3707.175631,-0.000196
3707.657834,-0.000021
3708.140036,0.000027
3708.622239,0.000049
3709.104442,0.000279
3709.586645,0.000377
3710.068848,0.000152
3710.551051,0.000071
3711.033254,0.000323
3711.515457,0.000342
3711.997659,0.000146
3712.479862,0.000243
3712.962065,0.000259
3713.444268,0.000026
3713.926471,-0.000125
3714.408674,-0.000235
3714.890877,-0.000257
3715.373079,-0.000134
3715.855282,-0.000013
3716.337485,-0.000010
3716.819688,-0.000027
3717.301891,-0.000008
3717.784094,-0.000062
3718.266297,-0.000026
3718.748500,0.000047
3719.230702,-0.000068
3719.712905,-0.000078
3720.195108,-0.000038
3720.677311,-0.000111
3721.159514,0.000011
3721.641717,0.000165
3722.123920,0.000150
3722.606122,0.000038
3723.088325,-0.000256
3723.570528,-0.000379
3724.052731,-0.000171
3724.534934,-0.000022
3725.017137,-0.000023
3725.499340,-0.000014
3725.981542,0.000074
3726.463745,0.000036
3726.945948,-0.000174
3727.428151,-0.000215
3727.910354,-0.000133
3728.392557,-0.000152
3728.874760,-0.000146
3729.356963,-0.000011
3729.839165,0.000031
3730.321368,-0.000120
3730.803571,-0.000167
3731.285774,0.000042
3731.767977,0.000327
3732.250180,0.000349
3732.732383,0.000050
3733.214585,-0.000078
3733.696788,0.000021
3734.178991,0.000098
3734.661194,0.000141
3735.143397,0.000135
3735.625600,0.000151
3736.107803,0.000212
3736.590006,0.000199
3737.072208,0.000059
3737.554411,-0.000108
3738.036614,-0.000021
3738.518817,0.000199
3739.001020,0.000219
3739.483223,0.000197
3739.965426,0.000263
3740.447628,0.000205
3740.929831,0.000190
3741.412034,0.000394
3741.894237,0.000426
3742.376440,0.000240
3742.858643,0.000258
3743.340846,0.000449
3743.823049,0.000654
3744.305251,0.000926
3744.787454,0.000950
3745.269657,0.000443
3745.751860,0.000091
3746.234063,0.000161
3746.716266,0.000260
3747.198469,0.000324
3747.680671,0.000339
3748.162874,0.000322
3748.645077,0.000332
3749.127280,0.000377
3749.609483,0.000534
3750.091686,0.000407
3750.573889,0.000147
3751.056092,0.000277
3751.538294,0.000352
3752.020497,0.000283
3752.502700,0.000323
3752.984903,0.000185
3753.467106,-0.000150
3753.949309,-0.000255
3754.431512,-0.000071
3754.913714,0.000040
3755.395917,0.000006
3755.878120,-0.000078
3756.360323,-0.000103
3756.842526,0.000013
3757.324729,-0.000001
3757.806932,0.000028
3758.289134,0.000217
3758.771337,0.000275
3759.253540,0.000197
3759.735743,0.000027
3760.217946,0.000037
3760.700149,0.000143
3761.182352,-0.000069
3761.664555,-0.000189
3762.146757,-0.000005
3762.628960,0.000083
3763.111163,0.000031
3763.593366,0.000061
3764.075569,0.000204
3764.557772,0.000307
3765.039975,0.000195
3765.522177,-0.000014
3766.004380,-0.000069
3766.486583,-0.000134
3766.968786,-0.000243
3767.450989,-0.000076
3767.933192,0.000103
3768.415395,-0.000032
3768.897598,-0.000125
3769.379800,-0.000095
3769.862003,-0.000061
3770.344206,0.000041
3770.826409,-0.000027
3771.308612,-0.000116
3771.790815,-0.000085
3772.273018,-0.000115
3772.755220,0.000000
3773.237423,0.000073
3773.719626,0.000023
3774.201829,0.000118
3774.684032,0.000030
3775.166235,-0.000071
3775.648438,0.000030
3776.130641,0.000042
3776.612843,0.000098
3777.095046,0.000157
3777.577249,0.000177
3778.059452,0.000257
3778.541655,0.000178
3779.023858,0.000106
3779.506061,0.000167
3779.988263,-0.000051
3780.470466,-0.000363
3780.952669,-0.000260
3781.434872,-0.000144
3781.917075,-0.000223
3782.399278,-0.000110
3782.881481,-0.000038
3783.363684,-0.000126
3783.845886,-0.000011
3784.328089,0.000181
3784.810292,0.000187
3785.292495,0.000013
3785.774698,-0.000191
3786.256901,-0.000292
3786.739104,-0.000304
3787.221306,-0.000224
3787.703509,-0.000020
3788.185712,0.000158
3788.667915,0.000167
3789.150118,0.000076
3789.632321,-0.000115
3790.114524,-0.000274
3790.596726,-0.000206
3791.078929,-0.000096
3791.561132,-0.000089
3792.043335,-0.000170
3792.525538,-0.000216
3793.007741,-0.000101
3793.489944,-0.000016
3793.972147,-0.000093
3794.454349,-0.000186
3794.936552,-0.000183
3795.418755,-0.000149
3795.900958,0.000036
3796.383161,0.000274
3796.865364,0.000111
3797.347567,-0.000087
3797.829769,-0.000056
3798.311972,-0.000162
3798.794175,-0.000089
3799.276378,0.000192
3799.758581,0.000348
3800.240784,0.000504
3800.722987,0.000482
3801.205190,0.000351
3801.687392,0.000351
3802.169595,0.000132
3802.651798,-0.000132
3803.134001,-0.000235
3803.616204,-0.000360
3804.098407,-0.000340
3804.580610,-0.000189
3805.062812,-0.000052
3805.545015,0.000058
3806.027218,0.000064
3806.509421,0.000086
3806.991624,0.000110
3807.473827,-0.000066
3807.956030,-0.000208
3808.438233,-0.000169
3808.920435,-0.000219
3809.402638,-0.000258
3809.884841,-0.000136
3810.367044,-0.000134
3810.849247,-0.000172
3811.331450,-0.000093
3811.813653,-0.000089
3812.295855,-0.000052
3812.778058,-0.000031
3813.260261,-0.000089
3813.742464,0.000011
3814.224667,0.000098
3814.706870,0.000134
3815.189073,0.000157
3815.671275,0.000089
3816.153478,0.000218
3816.635681,0.000249
3817.117884,-0.000116
3817.600087,-0.000223
3818.082290,-0.000125
3818.564493,-0.000196
3819.046696,-0.000220
3819.528898,-0.000010
3820.011101,0.000316
3820.493304,0.000505
3820.975507,0.000329
3821.457710,0.000016
3821.939913,-0.000085
3822.422116,-0.000144
3822.904318,-0.000281
3823.386521,-0.000295
3823.868724,-0.000193
3824.350927,-0.000147
3824.833130,-0.000021
3825.315333,0.000108
3825.797536,-0.000059
3826.279739,-0.000181
3826.761941,-0.000082
3827.244144,0.000018
3827.726347,0.000075
3828.208550,-0.000058
3828.690753,-0.000170
3829.172956,-0.000030
3829.655159,0.000153
3830.137361,0.000275
3830.619564,0.000207
3831.101767,0.000048
3831.583970,-0.000061
3832.066173,-0.000219
3832.548376,-0.000220
3833.030579,-0.000098
3833.512782,-0.000044
3833.994984,0.000061
3834.477187,0.000230
3834.959390,0.000379
3835.441593,0.000300
3835.923796,0.000019
3836.405999,-0.000133
3836.888202,-0.000164
3837.370404,-0.000108
3837.852607,0.000117
3838.334810,0.000279
3838.817013,0.000085
3839.299216,-0.000075
3839.781419,-0.000063
3840.263622,-0.000122
3840.745825,-0.000063
3841.228027,-0.000007
3841.710230,-0.000189
3842.192433,-0.000239
3842.674636,-0.000147
3843.156839,-0.000021
3843.639042,0.000154
3844.121245,0.000163
3844.603447,0.000098
3845.085650,0.000083
3845.567853,0.000043
3846.050056,0.000061
3846.532259,0.000057
3847.014462,-0.000063
3847.496665,-0.000112
3847.978867,-0.000045
3848.461070,-0.000005
3848.943273,0.000057
3849.425476,0.000180
3849.907679,0.000134
3850.389882,0.000031
3850.872085,0.000197
3851.354288,0.000469
3851.836490,0.000629
3852.318693,0.000533
3852.800896,0.000302
3853.283099,0.000442
3853.765302,0.000773
3854.247505,0.000915
3854.729708,0.000611
3855.211910,0.000043
3855.694113,-0.000153
3856.176316,-0.000104
3856.658519,-0.000100
3857.140722,-0.000098
3857.622925,-0.000076
3858.105128,-0.000088
3858.587331,-0.000128
3859.069533,-0.000109
3859.551736,-0.000038
3860.033939,-0.000087
3860.516142,-0.000191
3860.998345,-0.000075
3861.480548,0.000072
3861.962751,0.000025
3862.444953,-0.000033
3862.927156,-0.000063
3863.409359,-0.000031
3863.891562,-0.000001
3864.373765,-0.000019
3864.855968,0.000115
3865.338171,0.000159
3865.820374,-0.000028
3866.302576,-0.000152
3866.784779,-0.000207
3867.266982,-0.000191
3867.749185,-0.000095
3868.231388,-0.000004
3868.713591,0.000196
3869.195794,0.000404
3869.677996,0.000423
3870.160199,0.000488
3870.642402,0.000432
3871.124605,0.000055
3871.606808,-0.000093
3872.089011,-0.000113
3872.571214,-0.000138
3873.053417,0.000053
3873.535619,0.000150
3874.017822,0.000156
3874.500025,0.000231
3874.982228,0.000166
3875.464431,0.000042
3875.946634,0.000026
3876.428837,0.000064
3876.911039,0.000037
3877.393242,-0.000041
3877.875445,-0.000064
3878.357648,-0.000018
3878.839851,0.000063
3879.322054,0.000174
3879.804257,0.000284
3880.286459,0.000229
3880.768662,0.000108
3881.250865,0.000140
3881.733068,0.000115
3882.215271,0.000010
3882.697474,-0.000033
3883.179677,-0.000069
3883.661880,-0.000019
3884.144082,0.000077
3884.626285,0.000086
3885.108488,0.000082
3885.590691,0.000047
3886.072894,-0.000014
3886.555097,-0.000102
3887.037300,-0.000216
3887.519502,-0.000278
3888.001705,-0.000354
3888.483908,-0.000310
3888.966111,-0.000066
3889.448314,0.000153
3889.930517,0.000254
3890.412720,0.000200
3890.894923,0.000135
3891.377125,0.000094
3891.859328,-0.000118
3892.341531,-0.000222
3892.823734,-0.000128
3893.305937,-0.000116
3893.788140,-0.000114
3894.270343,-0.000057
3894.752545,-0.000055
3895.234748,0.000020
3895.716951,0.000270
3896.199154,0.000340
3896.681357,0.000109
3897.163560,-0.000010
3897.645763,0.000009
3898.127966,-0.000034
3898.610168,0.000041
3899.092371,0.000231
3899.574574,0.000276
3900.056777,0.000213
3900.538980,0.000180
3901.021183,0.000127
3901.503386,0.000114
3901.985588,0.000296
3902.467791,0.000392
3902.949994,0.000146
3903.432197,-0.000059
3903.914400,-0.000052
3904.396603,0.000060
3904.878806,0.000051
3905.361008,-0.000093
3905.843211,0.000043
3906.325414,0.000221
3906.807617,0.000148
3907.289820,0.000175
3907.772023,0.000258
3908.254226,0.000283
3908.736429,0.000333
3909.218631,0.000251
3909.700834,0.000061
3910.183037,-0.000106
3910.665240,-0.000129
3911.147443,-0.000003
3911.629646,-0.000029
3912.111849,-0.000114
3912.594051,-0.000089
3913.076254,-0.000198
3913.558457,-0.000192
3914.040660,0.000090
3914.522863,0.000176
3915.005066,0.000096
3915.487269,0.000100
3915.969472,0.000071
3916.451674,0.000057
3916.933877,0.000134
3917.416080,0.000139
3917.898283,-0.000033
3918.380486,-0.000166
3918.862689,-0.000089
3919.344892,-0.000056
3919.827094,-0.000064
3920.309297,0.000051
3920.791500,0.000039
3921.273703,-0.000079
3921.755906,-0.000013
3922.238109,0.000153
3922.720312,0.000175
3923.202515,0.000018
3923.684717,-0.000094
3924.166920,-0.000001
3924.649123,0.000160
3925.131326,0.000196
3925.613529,0.000278
3926.095732,0.000373
3926.577935,0.000205
3927.060137,0.000183
3927.542340,0.000298
3928.024543,0.000078
3928.506746,-0.000046
3928.988949,0.000046
3929.471152,0.000094
3929.953355,0.000295
3930.435558,0.000370
3930.917760,0.000201
3931.399963,0.000170
3931.882166,0.000157
3932.364369,-0.000066
3932.846572,-0.000293
3933.328775,-0.000211
3933.810978,0.000044
3934.293180,0.000115
3934.775383,0.000012
3935.257586,-0.000019
3935.739789,0.000052
3936.221992,0.000011
3936.704195,-0.000077
3937.186398,-0.000070
3937.668600,-0.000025
3938.150803,0.000033
3938.633006,-0.000060
3939.115209,-0.000172
3939.597412,-0.000090
3940.079615,0.000036
3940.561818,0.000186
3941.044021,0.000163
3941.526223,0.000010
3942.008426,0.000075
3942.490629,0.000072
3942.972832,-0.000118
3943.455035,-0.000210
3943.937238,-0.000243
3944.419441,-0.000148
3944.901643,0.000066
3945.383846,0.000044
3945.866049,-0.000070
3946.348252,0.000036
3946.830455,0.000120
3947.312658,0.000026
3947.794861,-0.000047
3948.277064,0.000087
3948.759266,0.000254
3949.241469,0.000108
3949.723672,-0.000054
3950.205875,0.000074
3950.688078,0.000151
3951.170281,0.000112
3951.652484,0.000029
3952.134686,-0.000066
3952.616889,0.000100
3953.099092,0.000243
3953.581295,0.000131
3954.063498,0.000159
3954.545701,0.000205
3955.027904,0.000108
3955.510107,0.000020
3955.992309,-0.000093
3956.474512,-0.000100
3956.956715,-0.000012
3957.438918,0.000073
3957.921121,0.000225
3958.403324,0.000178
3958.885527,0.000021
3959.367729,0.000137
3959.849932,0.000166
3960.332135,0.000016
3960.814338,0.000045
3961.296541,0.000047
3961.778744,0.000007
3962.260947,0.000059
3962.743150,0.000010
3963.225352,-0.000080
3963.707555,-0.000162
3964.189758,-0.000301
3964.671961,-0.000397
3965.154164,-0.000273
3965.636367,0.000002
3966.118570,-0.000001
3966.600772,-0.000173
3967.082975,-0.000068
3967.565178,0.000033
3968.047381,-0.000030
3968.529584,0.000044
3969.011787,0.000124
3969.493990,0.000133
3969.976192,0.000168
3970.458395,0.000036
3970.940598,-0.000080
3971.422801,0.000104
3971.905004,0.000333
3972.387207,0.000277
3972.869410,-0.000014
3973.351613,-0.000184
3973.833815,-0.000136
3974.316018,-0.000051
3974.798221,-0.000044
3975.280424,-0.000034
3975.762627,0.000071
3976.244830,0.000047
3976.727033,-0.000012
3977.209235,0.000138
3977.691438,0.000208
3978.173641,0.000139
3978.655844,0.000114
3979.138047,0.000095
3979.620250,0.000110
3980.102453,0.000097
3980.584656,-0.000082
3981.066858,-0.000250
3981.549061,-0.000172
3982.031264,-0.000023
3982.513467,-0.000100
3982.995670,-0.000231
3983.477873,-0.000186
3983.960076,-0.000151
3984.442278,-0.000120
3984.924481,0.000052
3985.406684,0.000085
3985.888887,-0.000066
3986.371090,-0.000084
3986.853293,-0.000005
3987.335496,-0.000001
3987.817699,0.000020
3988.299901,0.000132
3988.782104,0.000110
3989.264307,-0.000073
3989.746510,-0.000017
3990.228713,0.000197
3990.710916,0.000211
3991.193119,0.000119
3991.675321,0.000058
3992.157524,0.000102
3992.639727,0.000212
3993.121930,0.000176
3993.604133,0.000014
3994.086336,-0.000170
3994.568539,-0.000224
3995.050742,-0.000097
3995.532944,-0.000100
3996.015147,-0.000215
3996.497350,-0.000279
3996.979553,-0.000400
3997.461756,-0.000324
3997.943959,-0.000062
3998.426162,-0.000105
3998.908364,-0.000209
3999.390567,-0.000125
3999.872770,-0.000123
4000.354973,-0.000030
