XLabel,Wavenumber
YLabel,Absorbance
FileType,Absorbance
DisplayDirection,20300
PeakDirection,20312
899.790547,-0.002154
900.272750,-0.002000
900.754953,-0.001415
901.237156,-0.000226
901.719359,-0.000276
902.201562,-0.001328
902.683764,-0.000596
903.165967,-0.000079
903.648170,-0.001202
904.130373,-0.000321
904.612576,0.001602
905.094779,0.001432
905.576982,0.000308
906.059184,-0.000950
906.541387,-0.000839
907.023590,0.000390
907.505793,-0.000232
907.987996,-0.001081
908.470199,-0.000496
908.952402,0.000595
909.434605,0.001214
909.916807,-0.000055
910.399010,-0.001190
910.881213,-0.000273
911.363416,0.000902
911.845619,0.001223
912.327822,0.000875
912.810025,0.000909
913.292227,0.001216
913.774430,0.000277
914.256633,-0.000739
914.738836,-0.000282
915.221039,0.000698
915.703242,0.001037
916.185445,0.000531
916.667648,0.000142
917.149850,0.000154
917.632053,-0.000386
918.114256,-0.000701
918.596459,-0.000201
919.078662,0.000374
919.560865,0.001204
920.043068,0.001523
920.525270,0.000571
921.007473,-0.000318
921.489676,-0.000665
921.971879,-0.000973
922.454082,-0.000843
922.936285,-0.000489
923.418488,-0.000661
923.900690,-0.000728
924.382893,-0.000229
924.865096,0.000151
925.347299,0.000134
925.829502,0.000007
926.311705,0.000256
926.793908,0.000742
927.276111,0.000685
927.758313,0.000255
928.240516,0.000125
928.722719,0.000274
929.204922,0.000182
929.687125,-0.000501
930.169328,-0.001006
930.651531,-0.000466
931.133733,0.000180
931.615936,-0.000107
932.098139,-0.000503
932.580342,-0.000244
933.062545,-0.000292
933.544748,-0.000897
934.026951,-0.000582
934.509154,0.000359
934.991356,0.000473
935.473559,-0.000325
935.955762,-0.001240
936.437965,-0.001108
936.920168,-0.000691
937.402371,-0.000776
937.884574,-0.000488
938.366776,-0.000437
938.848979,-0.000546
939.331182,-0.000165
939.813385,0.000177
940.295588,0.000575
940.777791,0.000875
941.259994,0.000726
941.742197,0.000208
942.224399,0.000115
942.706602,0.000315
943.188805,-0.000253
943.671008,-0.000220
944.153211,0.000593
944.635414,0.000691
945.117617,0.000439
945.599819,0.000094
946.082022,-0.000080
946.564225,-0.000030
947.046428,-0.000183
947.528631,-0.000144
948.010834,0.000245
948.493037,0.000238
948.975240,-0.000546
949.457442,-0.000749
949.939645,-0.000193
950.421848,-0.000549
950.904051,-0.001100
951.386254,-0.000691
951.868457,-0.000134
952.350660,0.000163
952.832862,0.000193
953.315065,-0.000166
953.797268,-0.000355
954.279471,-0.000183
954.761674,-0.000172
955.243877,-0.000210
955.726080,-0.000161
956.208282,-0.000350
956.690485,-0.000385
957.172688,0.000076
957.654891,0.000404
958.137094,0.000377
958.619297,0.000328
959.101500,0.000297
959.583703,0.000296
960.065905,0.000294
960.548108,0.000274
961.030311,0.000314
961.512514,0.000264
961.994717,0.000018
962.476920,-0.000295
962.959123,-0.000446
963.441325,-0.000248
963.923528,0.000106
964.405731,0.000222
964.887934,0.000257
965.370137,0.000289
965.852340,0.000034
966.334543,0.000024
966.816746,0.000363
967.298948,0.000301
967.781151,0.000112
968.263354,0.000139
968.745557,0.000230
969.227760,0.000415
969.709963,0.000388
970.192166,0.000056
970.674368,-0.000068
971.156571,0.000014
971.638774,-0.000165
972.120977,-0.000302
972.603180,-0.000081
973.085383,0.000043
973.567586,0.000063
974.049789,0.000077
974.531991,0.000011
975.014194,0.000118
975.496397,0.000184
975.978600,0.000044
976.460803,0.000093
976.943006,0.000326
977.425209,0.000261
977.907411,0.000070
978.389614,0.000341
978.871817,0.000526
979.354020,0.000255
979.836223,0.000199
980.318426,0.000245
980.800629,0.000133
981.282831,0.000206
981.765034,0.000320
982.247237,0.000177
982.729440,0.000033
983.211643,0.000071
983.693846,-0.000062
984.176049,-0.000309
984.658252,-0.000236
985.140454,-0.000095
985.622657,-0.000110
986.104860,0.000022
986.587063,0.000157
987.069266,-0.000019
987.551469,-0.000148
988.033672,0.000054
988.515874,0.000146
988.998077,0.000052
989.480280,0.000206
989.962483,0.000272
990.444686,0.000023
990.926889,-0.000091
991.409092,-0.000114
991.891295,-0.000111
992.373497,0.000042
992.855700,0.000185
993.337903,0.000188
993.820106,0.000024
994.302309,-0.000081
994.784512,-0.000054
995.266715,-0.000080
995.748917,-0.000091
996.231120,-0.000157
996.713323,-0.000308
997.195526,-0.000222
997.677729,0.000010
998.159932,0.000066
998.642135,0.000151
999.124338,0.000252
999.606540,0.000044
1000.088743,-0.000215
1000.570946,-0.000309
1001.053149,-0.000254
1001.535352,-0.000074
1002.017555,-0.000042
1002.499758,-0.000067
1002.981960,0.000075
1003.464163,0.000131
1003.946366,-0.000005
1004.428569,-0.000076
1004.910772,-0.000033
1005.392975,-0.000064
1005.875178,-0.000067
1006.357381,0.000054
1006.839583,0.000035
1007.321786,-0.000210
1007.803989,-0.000381
1008.286192,-0.000175
1008.768395,0.000132
1009.250598,0.000166
1009.732801,0.000056
1010.215003,-0.000096
1010.697206,-0.000106
1011.179409,0.000033
1011.661612,0.000027
1012.143815,0.000057
1012.626018,0.000177
1013.108221,0.000144
1013.590423,0.000037
1014.072626,0.000019
1014.554829,0.000042
1015.037032,-0.000033
1015.519235,-0.000060
1016.001438,0.000032
1016.483641,0.000090
1016.965844,0.000081
1017.448046,-0.000001
1017.930249,-0.000044
1018.412452,-0.000017
1018.894655,-0.000010
1019.376858,-0.000009
1019.859061,0.000008
1020.341264,-0.000036
1020.823466,-0.000127
1021.305669,-0.000037
1021.787872,0.000091
1022.270075,0.000094
1022.752278,0.000149
1023.234481,0.000115
1023.716684,0.000006
1024.198887,-0.000001
1024.681089,-0.000048
1025.163292,-0.000106
1025.645495,-0.000025
1026.127698,0.000100
1026.609901,0.000130
1027.092104,0.000150
1027.574307,0.000121
1028.056509,0.000019
1028.538712,0.000124
1029.020915,0.000202
1029.503118,-0.000066
1029.985321,-0.000220
1030.467524,-0.000128
1030.949727,-0.000173
1031.431930,-0.000224
1031.914132,-0.000114
1032.396335,-0.000033
1032.878538,-0.000067
1033.360741,-0.000155
1033.842944,-0.000201
1034.325147,-0.000190
1034.807350,-0.000120
1035.289552,-0.000012
1035.771755,0.000028
1036.253958,0.000008
1036.736161,0.000018
1037.218364,0.000090
1037.700567,0.000136
1038.182770,0.000105
1038.664973,0.000054
1039.147175,0.000014
1039.629378,-0.000037
1040.111581,-0.000124
1040.593784,-0.000107
1041.075987,-0.000061
1041.558190,-0.000130
1042.040393,-0.000082
1042.522595,-0.000010
1043.004798,-0.000022
1043.487001,0.000043
1043.969204,0.000114
1044.451407,0.000148
1044.933610,0.000074
1045.415813,-0.000055
1045.898015,-0.000081
1046.380218,-0.000062
1046.862421,0.000051
1047.344624,0.000133
1047.826827,0.000016
1048.309030,-0.000085
1048.791233,-0.000059
1049.273436,-0.000027
1049.755638,-0.000101
1050.237841,-0.000122
1050.720044,-0.000014
1051.202247,-0.000031
1051.684450,-0.000111
1052.166653,-0.000064
1052.648856,-0.000003
1053.131058,-0.000061
1053.613261,-0.000177
1054.095464,-0.000155
1054.577667,-0.000036
1055.059870,0.000029
1055.542073,0.000099
1056.024276,0.000161
1056.506479,0.000135
1056.988681,0.000069
1057.470884,0.000031
1057.953087,0.000061
1058.435290,0.000079
1058.917493,-0.000013
1059.399696,-0.000044
1059.881899,0.000054
1060.364101,0.000080
1060.846304,0.000058
1061.328507,0.000092
1061.810710,0.000066
1062.292913,-0.000057
1062.775116,-0.000140
1063.257319,-0.000172
1063.739522,-0.000218
1064.221724,-0.000209
1064.703927,-0.000156
1065.186130,-0.000090
1065.668333,0.000004
1066.150536,0.000059
1066.632739,0.000036
1067.114942,-0.000091
1067.597144,-0.000138
1068.079347,-0.000017
1068.561550,0.000052
1069.043753,0.000101
1069.525956,0.000093
1070.008159,-0.000040
1070.490362,-0.000094
1070.972564,-0.000082
1071.454767,0.000003
1071.936970,0.000165
1072.419173,0.000118
1072.901376,-0.000074
1073.383579,-0.000059
1073.865782,0.000050
1074.347985,0.000067
1074.830187,0.000121
1075.312390,0.000154
1075.794593,0.000088
1076.276796,0.000062
1076.758999,0.000111
1077.241202,0.000139
1077.723405,0.000121
1078.205607,0.000128
1078.687810,0.000088
1079.170013,-0.000021
1079.652216,-0.000045
1080.134419,-0.000028
1080.616622,-0.000068
1081.098825,-0.000127
1081.581028,-0.000069
1082.063230,0.000096
1082.545433,0.000086
1083.027636,-0.000075
1083.509839,-0.000093
1083.992042,-0.000047
1084.474245,-0.000064
1084.956448,-0.000018
1085.438650,0.000026
1085.920853,-0.000056
1086.403056,-0.000131
1086.885259,-0.000103
1087.367462,-0.000016
1087.849665,0.000041
1088.331868,0.000027
1088.814071,-0.000004
1089.296273,0.000015
1089.778476,0.000060
1090.260679,0.000031
1090.742882,0.000006
1091.225085,0.000044
1091.707288,0.000061
1092.189491,0.000102
1092.671693,0.000136
1093.153896,0.000161
1093.636099,0.000216
1094.118302,0.000199
1094.600505,0.000152
1095.082708,0.000109
1095.564911,0.000076
1096.047114,0.000052
1096.529316,-0.000002
1097.011519,0.000092
1097.493722,0.000191
1097.975925,0.000032
1098.458128,-0.000070
1098.940331,-0.000034
1099.422534,-0.000111
1099.904736,-0.000139
1100.386939,0.000014
1100.869142,0.000075
1101.351345,-0.000046
1101.833548,-0.000109
1102.315751,-0.000057
1102.797954,-0.000002
1103.280156,0.000004
1103.762359,-0.000034
1104.244562,0.000018
1104.726765,0.000108
1105.208968,0.000015
1105.691171,-0.000121
1106.173374,-0.000166
1106.655577,-0.000183
1107.137779,-0.000123
1107.619982,-0.000032
1108.102185,0.000009
1108.584388,-0.000017
1109.066591,-0.000132
1109.548794,-0.000199
1110.030997,-0.000118
1110.513199,-0.000036
1110.995402,-0.000015
1111.477605,-0.000008
1111.959808,-0.000094
1112.442011,-0.000141
1112.924214,-0.000015
1113.406417,0.000018
1113.888620,0.000028
1114.370822,0.000138
1114.853025,0.000122
1115.335228,0.000048
1115.817431,0.000012
1116.299634,0.000026
1116.781837,0.000081
1117.264040,0.000097
1117.746242,0.000121
1118.228445,0.000084
1118.710648,-0.000010
1119.192851,-0.000013
1119.675054,0.000032
1120.157257,0.000024
1120.639460,-0.000086
1121.121663,-0.000143
1121.603865,-0.000039
1122.086068,0.000001
1122.568271,-0.000068
1123.050474,-0.000019
1123.532677,0.000157
1124.014880,0.000173
1124.497083,-0.000017
1124.979285,-0.000077
1125.461488,0.000032
1125.943691,0.000040
1126.425894,-0.000046
1126.908097,-0.000030
1127.390300,0.000028
1127.872503,-0.000013
1128.354706,-0.000005
1128.836908,0.000071
1129.319111,0.000051
1129.801314,0.000057
1130.283517,0.000104
1130.765720,0.000070
1131.247923,0.000003
1131.730126,-0.000005
1132.212328,0.000057
1132.694531,0.000043
1133.176734,0.000029
1133.658937,0.000104
1134.141140,0.000067
1134.623343,0.000006
1135.105546,-0.000005
1135.587748,-0.000069
1136.069951,-0.000045
1136.552154,0.000025
1137.034357,-0.000022
1137.516560,-0.000037
1137.998763,0.000031
1138.480966,0.000038
1138.963169,-0.000005
1139.445371,-0.000032
1139.927574,-0.000029
1140.409777,-0.000014
1140.891980,-0.000070
1141.374183,-0.000101
1141.856386,-0.000015
1142.338589,0.000007
1142.820791,-0.000052
1143.302994,-0.000097
1143.785197,-0.000145
1144.267400,-0.000162
1144.749603,-0.000122
1145.231806,-0.000039
1145.714009,0.000033
1146.196212,0.000074
1146.678414,0.000050
1147.160617,-0.000101
1147.642820,-0.000176
1148.125023,-0.000122
1148.607226,-0.000091
1149.089429,-0.000012
1149.571632,0.000037
1150.053834,-0.000061
1150.536037,-0.000168
1151.018240,-0.000155
1151.500443,-0.000050
1151.982646,-0.000029
1152.464849,-0.000081
1152.947052,-0.000067
1153.429255,-0.000042
1153.911457,-0.000026
1154.393660,-0.000004
1154.875863,-0.000002
1155.358066,0.000006
1155.840269,-0.000024
1156.322472,-0.000070
1156.804675,-0.000037
1157.286877,0.000023
1157.769080,0.000046
1158.251283,0.000049
1158.733486,0.000029
1159.215689,-0.000045
1159.697892,-0.000102
1160.180095,-0.000079
1160.662298,-0.000088
1161.144500,-0.000069
1161.626703,0.000001
1162.108906,-0.000061
1162.591109,-0.000132
1163.073312,-0.000110
1163.555515,-0.000113
1164.037718,-0.000111
1164.519920,-0.000086
1165.002123,-0.000096
1165.484326,-0.000120
1165.966529,-0.000112
1166.448732,-0.000097
1166.930935,-0.000071
1167.413138,-0.000030
1167.895340,-0.000065
1168.377543,-0.000137
1168.859746,-0.000193
1169.341949,-0.000235
1169.824152,-0.000208
1170.306355,-0.000150
1170.788558,-0.000120
1171.270761,-0.000157
1171.752963,-0.000235
1172.235166,-0.000176
1172.717369,-0.000046
1173.199572,-0.000027
1173.681775,-0.000094
1174.163978,-0.000125
1174.646181,0.000001
1175.128383,0.000114
1175.610586,0.000032
1176.092789,-0.000049
1176.574992,-0.000012
1177.057195,0.000043
1177.539398,0.000002
1178.021601,-0.000128
1178.503804,-0.000142
1178.986006,-0.000027
1179.468209,0.000002
1179.950412,-0.000042
1180.432615,-0.000049
1180.914818,-0.000010
1181.397021,0.000041
1181.879224,-0.000054
1182.361426,-0.000226
1182.843629,-0.000221
1183.325832,-0.000162
1183.808035,-0.000141
1184.290238,-0.000085
1184.772441,-0.000076
1185.254644,-0.000088
1185.736847,-0.000060
1186.219049,-0.000032
1186.701252,-0.000042
1187.183455,-0.000140
1187.665658,-0.000239
1188.147861,-0.000204
1188.630064,-0.000064
1189.112267,0.000010
1189.594469,-0.000073
1190.076672,-0.000150
1190.558875,-0.000144
1191.041078,-0.000147
1191.523281,-0.000137
1192.005484,-0.000121
1192.487687,-0.000103
1192.969889,-0.000076
1193.452092,-0.000112
1193.934295,-0.000149
1194.416498,-0.000130
1194.898701,-0.000096
1195.380904,-0.000056
1195.863107,-0.000052
1196.345310,-0.000054
1196.827512,-0.000007
1197.309715,0.000020
1197.791918,-0.000026
1198.274121,-0.000121
1198.756324,-0.000150
1199.238527,-0.000108
1199.720730,-0.000140
1200.202932,-0.000158
1200.685135,-0.000077
1201.167338,-0.000049
1201.649541,-0.000123
1202.131744,-0.000239
1202.613947,-0.000275
1203.096150,-0.000183
1203.578353,-0.000121
1204.060555,-0.000153
1204.542758,-0.000200
1205.024961,-0.000201
1205.507164,-0.000146
1205.989367,-0.000079
1206.471570,-0.000048
1206.953773,-0.000100
1207.435975,-0.000162
1207.918178,-0.000149
1208.400381,-0.000155
1208.882584,-0.000177
1209.364787,-0.000121
1209.846990,-0.000071
1210.329193,-0.000090
1210.811396,-0.000116
1211.293598,-0.000104
1211.775801,-0.000074
1212.258004,-0.000111
1212.740207,-0.000157
1213.222410,-0.000104
1213.704613,-0.000055
1214.186816,-0.000021
1214.669018,0.000005
1215.151221,-0.000111
1215.633424,-0.000217
1216.115627,-0.000148
1216.597830,-0.000075
1217.080033,-0.000055
1217.562236,-0.000036
1218.044439,-0.000036
1218.526641,-0.000066
1219.008844,-0.000111
1219.491047,-0.000111
1219.973250,-0.000055
1220.455453,0.000027
1220.937656,0.000045
1221.419859,-0.000057
1221.902061,-0.000145
1222.384264,-0.000156
1222.866467,-0.000114
1223.348670,-0.000079
1223.830873,-0.000121
1224.313076,-0.000136
1224.795279,-0.000129
1225.277481,-0.000190
1225.759684,-0.000191
1226.241887,-0.000108
1226.724090,-0.000089
1227.206293,-0.000111
1227.688496,-0.000070
1228.170699,-0.000037
1228.652902,-0.000060
1229.135104,-0.000092
1229.617307,-0.000113
1230.099510,-0.000138
1230.581713,-0.000195
1231.063916,-0.000204
1231.546119,-0.000155
1232.028322,-0.000150
1232.510524,-0.000127
1232.992727,-0.000119
1233.474930,-0.000171
1233.957133,-0.000162
1234.439336,-0.000115
1234.921539,-0.000050
1235.403742,0.000010
1235.885945,0.000013
1236.368147,0.000009
1236.850350,-0.000040
1237.332553,-0.000050
1237.814756,0.000016
1238.296959,-0.000049
1238.779162,-0.000077
1239.261365,0.000059
1239.743567,0.000070
1240.225770,0.000009
1240.707973,0.000005
1241.190176,-0.000059
1241.672379,-0.000118
1242.154582,-0.000073
1242.636785,0.000004
1243.118988,0.000032
1243.601190,0.000035
1244.083393,-0.000013
1244.565596,-0.000130
1245.047799,-0.000132
1245.530002,0.000002
1246.012205,0.000073
1246.494408,0.000043
1246.976610,0.000027
1247.458813,0.000034
1247.941016,-0.000041
1248.423219,-0.000123
1248.905422,-0.000135
1249.387625,-0.000096
1249.869828,-0.000066
1250.352031,-0.000114
1250.834233,-0.000102
1251.316436,-0.000044
1251.798639,-0.000050
1252.280842,-0.000042
1252.763045,-0.000052
1253.245248,-0.000089
1253.727451,-0.000142
1254.209653,-0.000153
1254.691856,-0.000072
1255.174059,-0.000047
1255.656262,-0.000049
1256.138465,-0.000030
1256.620668,-0.000033
1257.102871,-0.000015
1257.585073,-0.000025
1258.067276,-0.000048
1258.549479,-0.000021
1259.031682,0.000005
1259.513885,-0.000061
1259.996088,-0.000149
1260.478291,-0.000131
1260.960494,-0.000112
1261.442696,-0.000119
1261.924899,-0.000095
1262.407102,-0.000103
1262.889305,-0.000108
1263.371508,-0.000082
1263.853711,-0.000065
1264.335914,-0.000064
1264.818116,-0.000057
1265.300319,-0.000039
1265.782522,-0.000080
1266.264725,-0.000118
1266.746928,-0.000111
1267.229131,-0.000118
1267.711334,-0.000112
1268.193537,-0.000140
1268.675739,-0.000186
1269.157942,-0.000157
1269.640145,-0.000129
1270.122348,-0.000151
1270.604551,-0.000117
1271.086754,-0.000049
1271.568957,-0.000064
1272.051159,-0.000089
1272.533362,-0.000035
1273.015565,0.000085
1273.497768,0.000207
1273.979971,0.000174
1274.462174,0.000039
1274.944377,-0.000028
1275.426580,-0.000032
1275.908782,0.000007
1276.390985,0.000049
1276.873188,0.000053
1277.355391,0.000051
1277.837594,0.000024
1278.319797,-0.000027
1278.802000,-0.000039
1279.284202,0.000032
1279.766405,0.000069
1280.248608,-0.000019
1280.730811,-0.000042
1281.213014,-0.000004
1281.695217,-0.000088
1282.177420,-0.000142
1282.659622,-0.000075
1283.141825,-0.000017
1283.624028,-0.000027
1284.106231,-0.000086
1284.588434,-0.000098
1285.070637,-0.000072
1285.552840,-0.000078
1286.035043,-0.000065
1286.517245,-0.000064
1286.999448,-0.000114
1287.481651,-0.000167
1287.963854,-0.000176
1288.446057,-0.000128
1288.928260,-0.000171
1289.410463,-0.000273
1289.892665,-0.000205
1290.374868,-0.000099
1290.857071,-0.000022
1291.339274,0.000072
1291.821477,0.000041
1292.303680,-0.000066
1292.785883,-0.000176
1293.268086,-0.000242
1293.750288,-0.000196
1294.232491,-0.000120
1294.714694,-0.000054
1295.196897,-0.000048
1295.679100,-0.000070
1296.161303,-0.000016
1296.643506,0.000005
1297.125708,0.000015
1297.607911,0.000048
1298.090114,-0.000053
1298.572317,-0.000073
1299.054520,0.000094
1299.536723,0.000178
1300.018926,0.000242
1300.501129,0.000244
1300.983331,0.000120
1301.465534,0.000143
1301.947737,0.000146
1302.429940,-0.000042
1302.912143,-0.000101
1303.394346,0.000015
1303.876549,0.000069
1304.358751,0.000016
1304.840954,-0.000050
1305.323157,-0.000014
1305.805360,0.000087
1306.287563,0.000015
1306.769766,-0.000141
1307.251969,-0.000082
1307.734172,-0.000014
1308.216374,-0.000099
1308.698577,-0.000079
1309.180780,-0.000002
1309.662983,-0.000082
1310.145186,-0.000197
1310.627389,-0.000197
1311.109592,-0.000137
1311.591794,-0.000075
1312.073997,-0.000009
1312.556200,-0.000029
1313.038403,-0.000112
1313.520606,-0.000147
1314.002809,-0.000177
1314.485012,-0.000129
1314.967214,-0.000092
1315.449417,-0.000193
1315.931620,-0.000244
1316.413823,-0.000296
1316.896026,-0.000350
1317.378229,-0.000250
1317.860432,-0.000145
1318.342635,-0.000109
1318.824837,-0.000052
1319.307040,-0.000006
1319.789243,-0.000065
1320.271446,-0.000133
1320.753649,-0.000122
1321.235852,-0.000154
1321.718055,-0.000224
1322.200257,-0.000259
1322.682460,-0.000239
1323.164663,-0.000169
1323.646866,-0.000106
1324.129069,-0.000079
1324.611272,-0.000099
1325.093475,-0.000177
1325.575678,-0.000200
1326.057880,-0.000083
1326.540083,-0.000035
1327.022286,-0.000083
1327.504489,-0.000039
1327.986692,0.000007
1328.468895,-0.000011
1328.951098,-0.000048
1329.433300,-0.000101
1329.915503,-0.000087
1330.397706,-0.000019
1330.879909,-0.000038
1331.362112,-0.000084
1331.844315,-0.000029
1332.326518,0.000012
1332.808721,-0.000052
1333.290923,-0.000167
1333.773126,-0.000238
1334.255329,-0.000148
1334.737532,-0.000058
1335.219735,-0.000115
1335.701938,-0.000145
1336.184141,-0.000164
1336.666343,-0.000245
1337.148546,-0.000159
1337.630749,-0.000025
1338.112952,-0.000065
1338.595155,-0.000105
1339.077358,-0.000210
1339.559561,-0.000376
1340.041764,-0.000269
1340.523966,-0.000008
1341.006169,0.000126
1341.488372,0.000128
1341.970575,0.000047
1342.452778,-0.000038
1342.934981,-0.000083
1343.417184,-0.000127
1343.899386,-0.000228
1344.381589,-0.000269
1344.863792,-0.000127
1345.345995,-0.000005
1345.828198,-0.000047
1346.310401,-0.000117
1346.792604,-0.000157
1347.274806,-0.000158
1347.757009,-0.000081
1348.239212,0.000044
1348.721415,0.000135
1349.203618,0.000078
1349.685821,-0.000053
1350.168024,-0.000066
1350.650227,-0.000011
1351.132429,0.000034
1351.614632,0.000047
1352.096835,-0.000022
1352.579038,-0.000071
1353.061241,-0.000027
1353.543444,0.000038
1354.025647,0.000043
1354.507849,0.000009
1354.990052,0.000098
1355.472255,0.000178
1355.954458,0.000048
1356.436661,-0.000006
1356.918864,0.000107
1357.401067,0.000100
1357.883270,-0.000033
1358.365472,-0.000108
1358.847675,-0.000077
1359.329878,-0.000102
1359.812081,-0.000184
1360.294284,-0.000151
1360.776487,-0.000080
1361.258690,-0.000036
1361.740892,-0.000040
1362.223095,-0.000122
1362.705298,-0.000214
1363.187501,-0.000260
1363.669704,-0.000088
1364.151907,0.000118
1364.634110,0.000023
1365.116313,-0.000029
1365.598515,0.000131
1366.080718,0.000144
1366.562921,0.000102
1367.045124,0.000141
1367.527327,0.000161
1368.009530,0.000129
1368.491733,0.000022
1368.973935,0.000001
1369.456138,0.000010
1369.938341,-0.000131
1370.420544,-0.000195
1370.902747,-0.000119
1371.384950,0.000078
1371.867153,0.000279
1372.349355,0.000138
1372.831558,-0.000053
1373.313761,-0.000078
1373.795964,-0.000203
1374.278167,-0.000216
1374.760370,-0.000117
1375.242573,-0.000156
1375.724776,-0.000102
1376.206978,-0.000004
1376.689181,-0.000059
1377.171384,-0.000001
1377.653587,0.000197
1378.135790,0.000191
1378.617993,0.000067
1379.100196,0.000079
1379.582398,0.000111
1380.064601,0.000082
1380.546804,0.000112
1381.029007,0.000144
1381.511210,0.000078
1381.993413,0.000095
1382.475616,0.000218
1382.957819,0.000266
1383.440021,0.000304
1383.922224,0.000311
1384.404427,0.000273
1384.886630,0.000336
1385.368833,0.000321
1385.851036,0.000122
1386.333239,-0.000011
1386.815441,-0.000045
1387.297644,-0.000180
1387.779847,-0.000263
1388.262050,-0.000087
1388.744253,0.000035
1389.226456,-0.000005
1389.708659,0.000033
1390.190862,0.000091
1390.673064,0.000041
1391.155267,0.000102
1391.637470,0.000210
1392.119673,0.000148
1392.601876,0.000135
1393.084079,0.000192
1393.566282,0.000113
1394.048484,-0.000121
1394.530687,-0.000298
1395.012890,-0.000156
1395.495093,-0.000035
1395.977296,-0.000031
1396.459499,0.000111
1396.941702,0.000203
1397.423905,0.000058
1397.906107,-0.000068
1398.388310,-0.000004
1398.870513,-0.000145
1399.352716,-0.000392
1399.834919,-0.000099
1400.317122,0.000296
1400.799325,0.000293
1401.281527,0.000246
1401.763730,0.000307
1402.245933,0.000206
1402.728136,0.000146
1403.210339,0.000238
1403.692542,0.000233
1404.174745,0.000200
1404.656947,0.000106
1405.139150,-0.000012
1405.621353,0.000041
1406.103556,0.000110
1406.585759,0.000193
1407.067962,0.000238
1407.550165,0.000200
1408.032368,0.000265
1408.514570,0.000320
1408.996773,0.000307
1409.478976,0.000283
1409.961179,0.000185
1410.443382,0.000147
1410.925585,0.000214
1411.407788,0.000271
1411.889990,0.000278
1412.372193,0.000242
1412.854396,0.000233
1413.336599,0.000218
1413.818802,0.000210
1414.301005,0.000283
1414.783208,0.000352
1415.265411,0.000319
1415.747613,0.000181
1416.229816,0.000079
1416.712019,0.000069
1417.194222,0.000070
1417.676425,0.000075
1418.158628,-0.000025
1418.640831,-0.000369
1419.123033,-0.000893
1419.605236,-0.000917
1420.087439,-0.000326
1420.569642,0.000027
1421.051845,0.000210
1421.534048,0.000323
1422.016251,0.000241
1422.498454,0.000176
1422.980656,0.000183
1423.462859,0.000109
1423.945062,-0.000038
1424.427265,-0.000106
1424.909468,-0.000014
1425.391671,0.000100
1425.873874,0.000119
1426.356076,0.000109
1426.838279,0.000117
1427.320482,0.000075
1427.802685,0.000039
1428.284888,0.000032
1428.767091,0.000046
1429.249294,0.000131
1429.731497,0.000127
1430.213699,0.000037
1430.695902,0.000104
1431.178105,0.000214
1431.660308,0.000129
1432.142511,-0.000025
1432.624714,-0.000005
1433.106917,0.000124
1433.589119,0.000250
1434.071322,0.000286
1434.553525,0.000190
1435.035728,0.000098
1435.517931,-0.000030
1436.000134,-0.000359
1436.482337,-0.000879
1436.964539,-0.001047
1437.446742,-0.000527
1437.928945,-0.000039
1438.411148,0.000194
1438.893351,0.000293
1439.375554,0.000299
1439.857757,0.000268
1440.339960,0.000250
1440.822162,0.000188
1441.304365,0.000120
1441.786568,0.000168
1442.268771,0.000261
1442.750974,0.000264
1443.233177,0.000224
1443.715380,0.000140
1444.197582,0.000022
1444.679785,0.000036
1445.161988,0.000138
1445.644191,0.000141
1446.126394,0.000062
1446.608597,0.000014
1447.090800,-0.000002
1447.573003,-0.000100
1448.055205,-0.000211
1448.537408,-0.000140
1449.019611,-0.000007
1449.501814,0.000115
1449.984017,0.000185
1450.466220,0.000135
1450.948423,0.000098
1451.430625,0.000088
1451.912828,0.000084
1452.395031,0.000154
1452.877234,0.000152
1453.359437,0.000095
1453.841640,0.000093
1454.323843,0.000003
1454.806046,-0.000177
1455.288248,-0.000294
1455.770451,-0.000412
1456.252654,-0.000895
1456.734857,-0.001622
1457.217060,-0.001319
1457.699263,-0.000659
1458.181466,-0.000542
1458.663668,-0.000462
1459.145871,-0.000207
1459.628074,-0.000014
1460.110277,0.000095
1460.592480,0.000166
1461.074683,0.000249
1461.556886,0.000266
1462.039089,0.000124
1462.521291,0.000038
1463.003494,0.000123
1463.485697,0.000098
1463.967900,-0.000101
1464.450103,-0.000324
1464.932306,-0.000412
1465.414509,-0.000149
1465.896711,0.000122
1466.378914,0.000169
1466.861117,0.000211
1467.343320,0.000328
1467.825523,0.000391
1468.307726,0.000330
1468.789929,0.000257
1469.272131,0.000251
1469.754334,0.000224
1470.236537,0.000175
1470.718740,0.000084
1471.200943,-0.000165
1471.683146,-0.000583
1472.165349,-0.000828
1472.647552,-0.000615
1473.129754,-0.000602
1473.611957,-0.000772
1474.094160,-0.000413
1474.576363,-0.000023
1475.058566,0.000040
1475.540769,-0.000022
1476.022972,-0.000236
1476.505174,-0.000322
1476.987377,-0.000074
1477.469580,0.000103
1477.951783,0.000187
1478.433986,0.000254
1478.916189,0.000196
1479.398392,0.000124
1479.880595,0.000127
1480.362797,0.000112
1480.845000,0.000083
1481.327203,0.000149
1481.809406,0.000231
1482.291609,0.000245
1482.773812,0.000258
1483.256015,0.000224
1483.738217,0.000188
1484.220420,0.000190
1484.702623,0.000120
1485.184826,0.000137
1485.667029,0.000162
1486.149232,0.000035
1486.631435,-0.000035
1487.113638,-0.000131
1487.595840,-0.000181
1488.078043,-0.000023
1488.560246,-0.000015
1489.042449,-0.000201
1489.524652,-0.000368
1490.006855,-0.000408
1490.489058,-0.000404
1490.971260,-0.000332
1491.453463,-0.000019
1491.935666,0.000199
1492.417869,0.000196
1492.900072,0.000245
1493.382275,0.000288
1493.864478,0.000229
1494.346680,0.000156
1494.828883,0.000101
1495.311086,-0.000021
1495.793289,-0.000358
1496.275492,-0.000657
1496.757695,-0.000372
1497.239898,-0.000015
1497.722101,0.000026
1498.204303,-0.000119
1498.686506,-0.000350
1499.168709,-0.000287
1499.650912,0.000098
1500.133115,0.000263
1500.615318,0.000212
1501.097521,0.000168
1501.579723,0.000133
1502.061926,0.000139
1502.544129,0.000155
1503.026332,0.000167
1503.508535,0.000171
1503.990738,0.000092
1504.472941,-0.000004
1504.955144,-0.000226
1505.437346,-0.000802
1505.919549,-0.001129
1506.401752,-0.001013
1506.883955,-0.001237
1507.366158,-0.001110
1507.848361,-0.000492
1508.330564,-0.000306
1508.812766,-0.000227
1509.294969,-0.000033
1509.777172,0.000026
1510.259375,0.000106
1510.741578,0.000204
1511.223781,0.000206
1511.705984,0.000083
1512.188187,-0.000139
1512.670389,-0.000037
1513.152592,0.000284
1513.634795,0.000358
1514.116998,0.000284
1514.599201,0.000188
1515.081404,0.000079
1515.563607,0.000038
1516.045809,-0.000046
1516.528012,-0.000248
1517.010215,-0.000425
1517.492418,-0.000483
1517.974621,-0.000263
1518.456824,0.000054
1518.939027,0.000141
1519.421230,0.000051
1519.903432,-0.000193
1520.385635,-0.000473
1520.867838,-0.000656
1521.350041,-0.000805
1521.832244,-0.000518
1522.314447,-0.000266
1522.796650,-0.000274
1523.278852,0.000012
1523.761055,0.000288
1524.243258,0.000233
1524.725461,0.000088
1525.207664,-0.000104
1525.689867,-0.000203
1526.172070,0.000018
1526.654272,0.000194
1527.136475,0.000135
1527.618678,0.000115
1528.100881,0.000153
1528.583084,0.000108
1529.065287,0.000191
1529.547490,0.000413
1530.029693,0.000517
1530.511895,0.000479
1530.994098,0.000413
1531.476301,0.000319
1531.958504,0.000205
1532.440707,0.000118
1532.922910,-0.000032
1533.405113,-0.000317
1533.887315,-0.000484
1534.369518,-0.000187
1534.851721,0.000252
1535.333924,0.000383
1535.816127,0.000353
1536.298330,0.000345
1536.780533,0.000284
1537.262736,0.000227
1537.744938,0.000122
1538.227141,-0.000188
1538.709344,-0.000748
1539.191547,-0.001140
1539.673750,-0.000897
1540.155953,-0.000849
1540.638156,-0.000769
1541.120358,-0.000310
1541.602561,-0.000401
1542.084764,-0.000882
1542.566967,-0.000486
1543.049170,0.000089
1543.531373,0.000103
1544.013576,0.000015
1544.495779,-0.000007
1544.977981,-0.000213
1545.460184,-0.000186
1545.942387,0.000248
1546.424590,0.000517
1546.906793,0.000532
1547.388996,0.000515
1547.871199,0.000449
1548.353401,0.000336
1548.835604,0.000285
1549.317807,0.000206
1549.800010,0.000104
1550.282213,0.000166
1550.764416,0.000332
1551.246619,0.000450
1551.728822,0.000521
1552.211024,0.000562
1552.693227,0.000519
1553.175430,0.000360
1553.657633,0.000127
1554.139836,-0.000167
1554.622039,-0.000273
1555.104242,0.000047
1555.586444,0.000334
1556.068647,0.000329
1556.550850,0.000159
1557.033053,-0.000244
1557.515256,-0.000857
1557.997459,-0.001203
1558.479662,-0.001273
1558.961864,-0.001029
1559.444067,-0.000845
1559.926270,-0.001130
1560.408473,-0.000919
1560.890676,-0.000078
1561.372879,0.000360
1561.855082,0.000514
1562.337285,0.000584
1562.819487,0.000530
1563.301690,0.000472
1563.783893,0.000491
1564.266096,0.000434
1564.748299,0.000299
1565.230502,0.000325
1565.712705,0.000482
1566.194907,0.000581
1566.677110,0.000630
1567.159313,0.000634
1567.641516,0.000608
1568.123719,0.000553
1568.605922,0.000401
1569.088125,0.000165
1569.570328,-0.000104
1570.052530,-0.000025
1570.534733,0.000478
1571.016936,0.000765
1571.499139,0.000762
1571.981342,0.000757
1572.463545,0.000792
1572.945748,0.000828
1573.427950,0.000795
1573.910153,0.000707
1574.392356,0.000624
1574.874559,0.000526
1575.356762,0.000352
1575.838965,-0.000026
1576.321168,-0.000181
1576.803371,0.000375
1577.285573,0.000765
1577.767776,0.000886
1578.249979,0.001040
1578.732182,0.001147
1579.214385,0.001192
1579.696588,0.001216
1580.178791,0.001147
1580.660993,0.001120
1581.143196,0.001184
1581.625399,0.001255
1582.107602,0.001364
1582.589805,0.001428
1583.072008,0.001415
1583.554211,0.001449
1584.036413,0.001521
1584.518616,0.001569
1585.000819,0.001580
1585.483022,0.001593
1585.965225,0.001708
1586.447428,0.001833
1586.929631,0.001809
1587.411834,0.001751
1587.894036,0.001770
1588.376239,0.001824
1588.858442,0.001879
1589.340645,0.001867
1589.822848,0.001897
1590.305051,0.002049
1590.787254,0.002133
1591.269456,0.002140
1591.751659,0.002172
1592.233862,0.002261
1592.716065,0.002363
1593.198268,0.002333
1593.680471,0.002277
1594.162674,0.002345
1594.644877,0.002463
1595.127079,0.002505
1595.609282,0.002468
1596.091485,0.002481
1596.573688,0.002531
1597.055891,0.002557
1597.538094,0.002577
1598.020297,0.002628
1598.502499,0.002769
1598.984702,0.002804
1599.466905,0.002648
1599.949108,0.002616
1600.431311,0.002732
1600.913514,0.002739
1601.395717,0.002676
1601.877920,0.002692
1602.360122,0.002791
1602.842325,0.002806
1603.324528,0.002627
1603.806731,0.002546
1604.288934,0.002623
1604.771137,0.002619
1605.253340,0.002665
1605.735542,0.002771
1606.217745,0.002655
1606.699948,0.002350
1607.182151,0.002182
1607.664354,0.002216
1608.146557,0.002333
1608.628760,0.002473
1609.110963,0.002345
1609.593165,0.002049
1610.075368,0.002005
1610.557571,0.002162
1611.039774,0.002358
1611.521977,0.002279
1612.004180,0.001908
1612.486383,0.001803
1612.968585,0.002021
1613.450788,0.002046
1613.932991,0.001821
1614.415194,0.001780
1614.897397,0.001733
1615.379600,0.001380
1615.861803,0.001044
1616.344005,0.000624
1616.826208,0.000178
1617.308411,0.000534
1617.790614,0.001117
1618.272817,0.001452
1618.755020,0.001652
1619.237223,0.001899
1619.719426,0.002140
1620.201628,0.002177
1620.683831,0.002214
1621.166034,0.002404
1621.648237,0.002449
1622.130440,0.002410
1622.612643,0.002476
1623.094846,0.002316
1623.577048,0.002180
1624.059251,0.002707
1624.541454,0.003185
1625.023657,0.003183
1625.505860,0.003240
1625.988063,0.003377
1626.470266,0.003240
1626.952469,0.003159
1627.434671,0.003203
1627.916874,0.002994
1628.399077,0.003073
1628.881280,0.003543
1629.363483,0.003482
1629.845686,0.003226
1630.327889,0.003486
1630.810091,0.003506
1631.292294,0.003217
1631.774497,0.003298
1632.256700,0.003228
1632.738903,0.002916
1633.221106,0.002902
1633.703309,0.002738
1634.185512,0.002301
1634.667714,0.001947
1635.149917,0.001409
1635.632120,0.001139
1636.114323,0.001685
1636.596526,0.001953
1637.078729,0.001832
1637.560932,0.001786
1638.043134,0.001804
1638.525337,0.001929
1639.007540,0.002025
1639.489743,0.001911
1639.971946,0.001918
1640.454149,0.001897
1640.936352,0.001650
1641.418555,0.001519
1641.900757,0.001406
1642.382960,0.001343
1642.865163,0.001383
1643.347366,0.001197
1643.829569,0.001038
1644.311772,0.000972
1644.793975,0.000801
1645.276177,0.000616
1645.758380,0.000207
1646.240583,0.000041
1646.722786,0.000363
1647.204989,0.000307
1647.687192,0.000111
1648.169395,0.000179
1648.651597,0.000361
1649.133800,0.000583
1649.616003,0.000693
1650.098206,0.000687
1650.580409,0.000593
1651.062612,0.000430
1651.544815,0.000099
1652.027018,-0.000685
1652.509220,-0.001569
1652.991423,-0.001750
1653.473626,-0.001390
1653.955829,-0.000805
1654.438032,-0.000269
1654.920235,0.000247
1655.402438,0.000570
1655.884640,0.000588
1656.366843,0.000571
1656.849046,0.000628
1657.331249,0.000657
1657.813452,0.000645
1658.295655,0.000625
1658.777858,0.000631
1659.260061,0.000629
1659.742263,0.000636
1660.224466,0.000714
1660.706669,0.000698
1661.188872,0.000515
1661.671075,0.000397
1662.153278,0.000292
1662.635481,0.000072
1663.117683,0.000137
1663.599886,0.000521
1664.082089,0.000698
1664.564292,0.000697
1665.046495,0.000734
1665.528698,0.000695
1666.010901,0.000606
1666.493104,0.000604
1666.975306,0.000610
1667.457509,0.000557
1667.939712,0.000416
1668.421915,0.000224
1668.904118,-0.000045
1669.386321,-0.000279
1669.868524,-0.000012
1670.350726,0.000362
1670.832929,0.000368
1671.315132,0.000212
1671.797335,0.000235
1672.279538,0.000444
1672.761741,0.000575
1673.243944,0.000542
1673.726146,0.000421
1674.208349,0.000288
1674.690552,0.000024
1675.172755,-0.000419
1675.654958,-0.000380
1676.137161,0.000125
1676.619364,0.000405
1677.101567,0.000470
1677.583769,0.000516
1678.065972,0.000570
1678.548175,0.000529
1679.030378,0.000489
1679.512581,0.000473
1679.994784,0.000352
1680.476987,0.000310
1680.959189,0.000364
1681.441392,0.000352
1681.923595,0.000304
1682.405798,0.000133
1682.888001,-0.000236
1683.370204,-0.000609
1683.852407,-0.000744
1684.334610,-0.000829
1684.816812,-0.000869
1685.299015,-0.000379
1685.781218,0.000218
1686.263421,0.000493
1686.745624,0.000515
1687.227827,0.000518
1687.710030,0.000489
1688.192232,0.000345
1688.674435,0.000295
1689.156638,0.000386
1689.638841,0.000421
1690.121044,0.000347
1690.603247,0.000363
1691.085450,0.000530
1691.567653,0.000586
1692.049855,0.000498
1692.532058,0.000458
1693.014261,0.000450
1693.496464,0.000382
1693.978667,0.000264
1694.460870,0.000109
1694.943073,-0.000153
1695.425275,-0.000650
1695.907478,-0.001044
1696.389681,-0.000543
1696.871884,0.000015
1697.354087,0.000183
1697.836290,0.000224
1698.318493,0.000199
1698.800696,0.000100
1699.282898,-0.000243
1699.765101,-0.001019
1700.247304,-0.001691
1700.729507,-0.001418
1701.211710,-0.000561
1701.693913,0.000130
1702.176116,0.000425
1702.658318,0.000433
1703.140521,0.000373
1703.622724,0.000342
1704.104927,0.000108
1704.587130,-0.000156
1705.069333,0.000012
1705.551536,0.000203
1706.033738,0.000057
1706.515941,-0.000078
1706.998144,0.000114
1707.480347,0.000340
1707.962550,0.000386
1708.444753,0.000385
1708.926956,0.000386
1709.409159,0.000410
1709.891361,0.000409
1710.373564,0.000350
1710.855767,0.000409
1711.337970,0.000469
1711.820173,0.000412
1712.302376,0.000408
1712.784579,0.000442
1713.266781,0.000355
1713.748984,0.000129
1714.231187,-0.000034
1714.713390,-0.000098
1715.195593,-0.000175
1715.677796,-0.000100
1716.159999,0.000033
1716.642202,-0.000032
1717.124404,-0.000350
1717.606607,-0.000567
1718.088810,-0.000394
1718.571013,-0.000345
1719.053216,-0.000234
1719.535419,0.000128
1720.017622,0.000306
1720.499824,0.000317
1720.982027,0.000337
1721.464230,0.000380
1721.946433,0.000419
1722.428636,0.000373
1722.910839,0.000289
1723.393042,0.000222
1723.875245,0.000193
1724.357447,0.000268
1724.839650,0.000366
1725.321853,0.000398
1725.804056,0.000372
1726.286259,0.000307
1726.768462,0.000291
1727.250665,0.000364
1727.732867,0.000424
1728.215070,0.000392
1728.697273,0.000272
1729.179476,0.000146
1729.661679,0.000055
1730.143882,0.000013
1730.626085,0.000157
1731.108288,0.000331
1731.590490,0.000278
1732.072693,0.000156
1732.554896,0.000041
1733.037099,-0.000267
1733.519302,-0.000634
1734.001505,-0.000758
1734.483708,-0.000831
1734.965910,-0.000616
1735.448113,-0.000071
1735.930316,0.000217
1736.412519,0.000248
1736.894722,0.000274
1737.376925,0.000325
1737.859128,0.000366
1738.341330,0.000282
1738.823533,0.000065
1739.305736,-0.000169
1739.787939,-0.000389
1740.270142,-0.000277
1740.752345,0.000053
1741.234548,0.000159
1741.716751,0.000169
1742.198953,0.000242
1742.681156,0.000205
1743.163359,0.000048
1743.645562,0.000038
1744.127765,0.000170
1744.609968,0.000265
1745.092171,0.000306
1745.574373,0.000203
1746.056576,0.000104
1746.538779,0.000173
1747.020982,0.000120
1747.503185,-0.000014
1747.985388,-0.000037
1748.467591,-0.000112
1748.949794,-0.000129
1749.431996,0.000024
1749.914199,0.000140
1750.396402,0.000092
1750.878605,-0.000185
1751.360808,-0.000421
1751.843011,-0.000184
1752.325214,0.000172
1752.807416,0.000297
1753.289619,0.000290
1753.771822,0.000341
1754.254025,0.000406
1754.736228,0.000363
1755.218431,0.000289
1755.700634,0.000241
1756.182837,0.000152
1756.665039,0.000018
1757.147242,-0.000007
1757.629445,0.000131
1758.111648,0.000234
1758.593851,0.000254
1759.076054,0.000303
1759.558257,0.000332
1760.040459,0.000247
1760.522662,0.000138
1761.004865,0.000048
1761.487068,-0.000128
1761.969271,-0.000247
1762.451474,-0.000063
1762.933677,0.000169
1763.415880,0.000214
1763.898082,0.000187
1764.380285,0.000242
1764.862488,0.000320
1765.344691,0.000315
1765.826894,0.000281
1766.309097,0.000263
1766.791300,0.000210
1767.273502,0.000139
1767.755705,0.000016
1768.237908,-0.000125
1768.720111,-0.000067
1769.202314,0.000073
1769.684517,0.000124
1770.166720,0.000136
1770.648922,0.000019
1771.131125,-0.000265
1771.613328,-0.000359
1772.095531,-0.000309
1772.577734,-0.000542
1773.059937,-0.000536
1773.542140,-0.000022
1774.024343,0.000247
1774.506545,0.000240
1774.988748,0.000213
1775.470951,0.000155
1775.953154,0.000159
1776.435357,0.000257
1776.917560,0.000327
1777.399763,0.000318
1777.881965,0.000242
1778.364168,0.000187
1778.846371,0.000167
1779.328574,0.000149
1779.810777,0.000172
1780.292980,0.000142
1780.775183,0.000033
1781.257386,0.000060
1781.739588,0.000191
1782.221791,0.000206
1782.703994,0.000153
1783.186197,0.000151
1783.668400,0.000158
1784.150603,0.000135
1784.632806,0.000046
1785.115008,0.000020
1785.597211,0.000180
1786.079414,0.000284
1786.561617,0.000282
1787.043820,0.000282
1787.526023,0.000244
1788.008226,0.000251
1788.490429,0.000316
1788.972631,0.000310
1789.454834,0.000277
1789.937037,0.000216
1790.419240,0.000038
1790.901443,-0.000173
1791.383646,-0.000215
1791.865849,-0.000172
1792.348051,-0.000346
1792.830254,-0.000503
1793.312457,-0.000211
1793.794660,0.000103
1794.276863,0.000151
1794.759066,0.000137
1795.241269,0.000150
1795.723471,0.000096
1796.205674,0.000118
1796.687877,0.000284
1797.170080,0.000319
1797.652283,0.000225
1798.134486,0.000195
1798.616689,0.000169
1799.098892,0.000059
1799.581094,-0.000103
1800.063297,-0.000091
1800.545500,0.000114
1801.027703,0.000169
1801.509906,0.000073
1801.992109,0.000049
1802.474312,0.000067
1802.956514,0.000078
1803.438717,0.000115
1803.920920,0.000191
1804.403123,0.000269
1804.885326,0.000300
1805.367529,0.000269
1805.849732,0.000206
1806.331935,0.000191
1806.814137,0.000231
1807.296340,0.000215
1807.778543,0.000136
1808.260746,0.000164
1808.742949,0.000262
1809.225152,0.000171
1809.707355,-0.000026
1810.189557,-0.000071
1810.671760,-0.000006
1811.153963,0.000084
1811.636166,0.000153
1812.118369,0.000152
1812.600572,0.000154
1813.082775,0.000193
1813.564978,0.000239
1814.047180,0.000265
1814.529383,0.000228
1815.011586,0.000192
1815.493789,0.000201
1815.975992,0.000236
1816.458195,0.000282
1816.940398,0.000223
1817.422600,0.000132
1817.904803,0.000157
1818.387006,0.000200
1818.869209,0.000230
1819.351412,0.000258
1819.833615,0.000323
1820.315818,0.000431
1820.798021,0.000354
1821.280223,0.000166
1821.762426,0.000132
1822.244629,0.000185
1822.726832,0.000197
1823.209035,0.000167
1823.691238,0.000224
1824.173441,0.000318
1824.655643,0.000140
1825.137846,-0.000184
1825.620049,-0.000155
1826.102252,0.000170
1826.584455,0.000352
1827.066658,0.000315
1827.548861,0.000288
1828.031063,0.000350
1828.513266,0.000243
1828.995469,-0.000033
1829.477672,-0.000172
1829.959875,-0.000187
1830.442078,-0.000068
1830.924281,0.000188
1831.406484,0.000381
1831.888686,0.000459
1832.370889,0.000328
1832.853092,0.000127
1833.335295,0.000115
1833.817498,0.000233
1834.299701,0.000358
1834.781904,0.000357
1835.264106,0.000340
1835.746309,0.000388
1836.228512,0.000252
1836.710715,0.000065
1837.192918,0.000078
1837.675121,0.000234
1838.157324,0.000344
1838.639527,0.000389
1839.121729,0.000568
1839.603932,0.000569
1840.086135,0.000304
1840.568338,0.000225
1841.050541,0.000250
1841.532744,0.000295
1842.014947,0.000336
1842.497149,0.000318
1842.979352,0.000397
1843.461555,0.000279
1843.943758,-0.000194
1844.425961,-0.000494
1844.908164,-0.000142
1845.390367,0.000353
1845.872570,0.000498
1846.354772,0.000542
1846.836975,0.000527
1847.319178,0.000219
1847.801381,0.000009
1848.283584,0.000119
1848.765787,0.000341
1849.247990,0.000510
1849.730192,0.000591
1850.212395,0.000635
1850.694598,0.000487
1851.176801,0.000223
1851.659004,0.000143
1852.141207,0.000220
1852.623410,0.000383
1853.105613,0.000585
1853.587815,0.000682
1854.070018,0.000533
1854.552221,0.000211
1855.034424,0.000047
1855.516627,0.000150
1855.998830,0.000335
1856.481033,0.000453
1856.963235,0.000517
1857.445438,0.000515
1857.927641,0.000368
1858.409844,0.000213
1858.892047,0.000179
1859.374250,0.000214
1859.856453,0.000335
1860.338655,0.000516
1860.820858,0.000530
1861.303061,0.000316
1861.785264,0.000118
1862.267467,0.000085
1862.749670,0.000157
1863.231873,0.000243
1863.714076,0.000333
1864.196278,0.000404
1864.678481,0.000329
1865.160684,0.000170
1865.642887,0.000077
1866.125090,0.000010
1866.607293,-0.000006
1867.089496,0.000070
1867.571698,0.000082
1868.053901,-0.000037
1868.536104,-0.000165
1869.018307,-0.000304
1869.500510,-0.000374
1869.982713,-0.000182
1870.464916,0.000039
1870.947119,0.000139
1871.429321,0.000152
1871.911524,0.000068
1872.393727,0.000054
1872.875930,0.000116
1873.358133,0.000100
1873.840336,0.000112
1874.322539,0.000173
1874.804741,0.000188
1875.286944,0.000307
1875.769147,0.000515
1876.251350,0.000463
1876.733553,0.000158
1877.215756,-0.000025
1877.697959,-0.000012
1878.180162,0.000004
1878.662364,0.000001
1879.144567,0.000037
1879.626770,0.000051
1880.108973,0.000072
1880.591176,0.000169
1881.073379,0.000229
1881.555582,0.000150
1882.037784,0.000042
1882.519987,0.000069
1883.002190,0.000134
1883.484393,0.000141
1883.966596,0.000259
1884.448799,0.000383
1884.931002,0.000286
1885.413204,0.000122
1885.895407,0.000069
1886.377610,0.000096
1886.859813,0.000214
1887.342016,0.000468
1887.824219,0.000538
1888.306422,0.000227
1888.788625,0.000039
1889.270827,0.000070
1889.753030,0.000037
1890.235233,0.000254
1890.717436,0.000634
1891.199639,0.000605
1891.681842,0.000262
1892.164045,0.000087
1892.646247,0.000129
1893.128450,0.000243
1893.610653,0.000497
1894.092856,0.000704
1894.575059,0.000494
1895.057262,0.000143
1895.539465,0.000097
1896.021668,0.000226
1896.503870,0.000447
1896.986073,0.000783
1897.468276,0.000786
1897.950479,0.000358
1898.432682,0.000126
1898.914885,0.000248
1899.397088,0.000439
1899.879290,0.000736
1900.361493,0.000895
1900.843696,0.000595
1901.325899,0.000288
1901.808102,0.000236
1902.290305,0.000286
1902.772508,0.000579
1903.254711,0.000891
1903.736913,0.000763
1904.219116,0.000418
1904.701319,0.000231
1905.183522,0.000217
1905.665725,0.000417
1906.147928,0.000760
1906.630131,0.000783
1907.112333,0.000425
1907.594536,0.000162
1908.076739,0.000164
1908.558942,0.000356
1909.041145,0.000637
1909.523348,0.000731
1910.005551,0.000518
1910.487754,0.000298
1910.969956,0.000252
1911.452159,0.000324
1911.934362,0.000517
1912.416565,0.000626
1912.898768,0.000521
1913.380971,0.000365
1913.863174,0.000239
1914.345376,0.000254
1914.827579,0.000442
1915.309782,0.000572
1915.791985,0.000491
1916.274188,0.000309
1916.756391,0.000205
1917.238594,0.000199
1917.720796,0.000194
1918.202999,0.000140
1918.685202,0.000157
1919.167405,0.000234
1919.649608,0.000229
1920.131811,0.000271
1920.614014,0.000441
1921.096217,0.000504
1921.578419,0.000379
1922.060622,0.000258
1922.542825,0.000207
1923.025028,0.000245
1923.507231,0.000372
1923.989434,0.000359
1924.471637,0.000236
1924.953839,0.000181
1925.436042,0.000167
1925.918245,0.000236
1926.400448,0.000286
1926.882651,0.000201
1927.364854,0.000126
1927.847057,0.000106
1928.329260,0.000149
1928.811462,0.000273
1929.293665,0.000318
1929.775868,0.000253
1930.258071,0.000198
1930.740274,0.000131
1931.222477,0.000101
1931.704680,0.000179
1932.186882,0.000244
1932.669085,0.000244
1933.151288,0.000210
1933.633491,0.000215
1934.115694,0.000320
1934.597897,0.000349
1935.080100,0.000213
1935.562303,0.000104
1936.044505,0.000115
1936.526708,0.000167
1937.008911,0.000190
1937.491114,0.000157
1937.973317,0.000099
1938.455520,0.000075
1938.937723,0.000089
1939.419925,0.000122
1939.902128,0.000121
1940.384331,0.000104
1940.866534,0.000093
1941.348737,0.000033
1941.830940,-0.000006
1942.313143,-0.000021
1942.795346,-0.000060
1943.277548,0.000009
1943.759751,0.000115
1944.241954,0.000127
1944.724157,0.000094
1945.206360,0.000019
1945.688563,0.000000
1946.170766,0.000048
1946.652968,0.000064
1947.135171,0.000113
1947.617374,0.000105
1948.099577,0.000030
1948.581780,0.000029
1949.063983,0.000012
1949.546186,0.000015
1950.028388,0.000084
1950.510591,0.000106
1950.992794,0.000127
1951.474997,0.000133
1951.957200,0.000120
1952.439403,0.000139
1952.921606,0.000135
1953.403809,0.000122
1953.886011,0.000121
1954.368214,0.000109
1954.850417,0.000083
1955.332620,0.000044
1955.814823,0.000064
1956.297026,0.000123
1956.779229,0.000133
1957.261431,0.000106
1957.743634,0.000061
1958.225837,0.000010
1958.708040,0.000008
1959.190243,0.000022
1959.672446,-0.000023
1960.154649,-0.000053
1960.636852,0.000021
1961.119054,0.000099
1961.601257,0.000073
1962.083460,0.000023
1962.565663,0.000064
1963.047866,0.000102
1963.530069,0.000022
1964.012272,-0.000071
1964.494474,-0.000076
1964.976677,-0.000036
1965.458880,0.000022
1965.941083,0.000050
1966.423286,0.000003
1966.905489,-0.000026
1967.387692,-0.000004
1967.869895,0.000029
1968.352097,0.000075
1968.834300,0.000077
1969.316503,0.000037
1969.798706,0.000033
1970.280909,0.000024
1970.763112,0.000008
1971.245315,0.000051
1971.727517,0.000087
1972.209720,0.000038
1972.691923,0.000003
1973.174126,0.000074
1973.656329,0.000131
1974.138532,0.000047
1974.620735,-0.000047
1975.102938,-0.000009
1975.585140,0.000075
1976.067343,0.000107
1976.549546,0.000069
1977.031749,0.000037
1977.513952,0.000082
1977.996155,0.000119
1978.478358,0.000098
1978.960560,0.000064
1979.442763,0.000029
1979.924966,0.000007
1980.407169,0.000052
1980.889372,0.000129
1981.371575,0.000127
1981.853778,0.000071
1982.335980,0.000067
1982.818183,0.000077
1983.300386,0.000041
1983.782589,0.000024
1984.264792,0.000024
1984.746995,0.000024
1985.229198,0.000071
1985.711401,0.000073
1986.193603,0.000035
1986.675806,0.000047
1987.158009,0.000041
1987.640212,0.000021
1988.122415,-0.000005
1988.604618,-0.000014
1989.086821,0.000050
1989.569023,0.000101
1990.051226,0.000117
1990.533429,0.000111
1991.015632,0.000066
1991.497835,0.000006
1991.980038,-0.000066
1992.462241,-0.000076
1992.944444,-0.000017
1993.426646,0.000020
1993.908849,0.000042
1994.391052,0.000032
1994.873255,0.000031
1995.355458,0.000082
1995.837661,0.000084
1996.319864,0.000066
1996.802066,0.000060
1997.284269,0.000030
1997.766472,0.000075
1998.248675,0.000149
1998.730878,0.000117
1999.213081,0.000082
1999.695284,0.000112
2000.177487,0.000125
2000.659689,0.000107
2001.141892,0.000079
2001.624095,0.000091
2002.106298,0.000136
2002.588501,0.000112
2003.070704,0.000083
2003.552907,0.000075
2004.035109,0.000025
2004.517312,0.000028
2004.999515,0.000045
2005.481718,-0.000012
2005.963921,-0.000066
2006.446124,-0.000049
2006.928327,0.000048
2007.410529,0.000111
2007.892732,0.000056
2008.374935,-0.000008
2008.857138,-0.000003
2009.339341,0.000052
2009.821544,0.000113
2010.303747,0.000127
2010.785950,0.000080
2011.268152,0.000027
2011.750355,0.000058
2012.232558,0.000121
2012.714761,0.000079
2013.196964,0.000011
2013.679167,0.000042
2014.161370,0.000061
2014.643572,-0.000014
2015.125775,-0.000036
2015.607978,0.000061
2016.090181,0.000108
2016.572384,0.000013
2017.054587,-0.000049
2017.536790,0.000013
2018.018993,0.000027
2018.501195,-0.000001
2018.983398,0.000023
2019.465601,-0.000010
2019.947804,-0.000051
2020.430007,-0.000054
2020.912210,-0.000059
2021.394413,0.000032
2021.876615,0.000068
2022.358818,-0.000027
2022.841021,-0.000038
2023.323224,0.000008
2023.805427,0.000033
2024.287630,0.000045
2024.769833,0.000017
2025.252036,-0.000000
2025.734238,0.000026
2026.216441,0.000059
2026.698644,0.000038
2027.180847,0.000028
2027.663050,0.000129
2028.145253,0.000181
2028.627456,0.000097
2029.109658,0.000038
2029.591861,0.000030
2030.074064,-0.000001
2030.556267,-0.000053
2031.038470,-0.000083
2031.520673,-0.000034
2032.002876,0.000015
2032.485079,0.000015
2032.967281,0.000035
2033.449484,0.000035
2033.931687,-0.000023
2034.413890,-0.000046
2034.896093,0.000056
2035.378296,0.000180
2035.860499,0.000178
2036.342701,0.000125
2036.824904,0.000134
2037.307107,0.000136
2037.789310,0.000069
2038.271513,0.000048
2038.753716,0.000121
2039.235919,0.000147
2039.718121,0.000060
2040.200324,-0.000039
2040.682527,-0.000072
2041.164730,-0.000089
2041.646933,-0.000091
2042.129136,-0.000005
2042.611339,0.000075
2043.093542,0.000073
2043.575744,0.000083
2044.057947,0.000064
2044.540150,-0.000004
2045.022353,0.000023
2045.504556,0.000082
2045.986759,0.000076
2046.468962,0.000060
2046.951164,-0.000009
2047.433367,-0.000072
2047.915570,-0.000020
2048.397773,0.000019
2048.879976,0.000002
2049.362179,0.000007
2049.844382,-0.000019
2050.326585,-0.000056
2050.808787,-0.000038
2051.290990,-0.000003
2051.773193,0.000073
2052.255396,0.000124
2052.737599,0.000063
2053.219802,0.000024
2053.702005,0.000020
2054.184207,-0.000021
2054.666410,-0.000008
2055.148613,0.000032
2055.630816,0.000025
2056.113019,0.000029
2056.595222,0.000034
2057.077425,0.000037
2057.559628,0.000083
2058.041830,0.000104
2058.524033,0.000084
2059.006236,0.000025
2059.488439,-0.000027
2059.970642,-0.000024
2060.452845,-0.000024
2060.935048,0.000041
2061.417250,0.000094
2061.899453,0.000032
2062.381656,-0.000012
2062.863859,-0.000034
2063.346062,-0.000029
2063.828265,0.000039
2064.310468,0.000093
2064.792671,0.000099
2065.274873,0.000060
2065.757076,0.000028
2066.239279,0.000013
2066.721482,-0.000029
2067.203685,-0.000041
2067.685888,-0.000007
2068.168091,-0.000003
2068.650293,-0.000053
2069.132496,-0.000100
2069.614699,-0.000052
2070.096902,0.000037
2070.579105,0.000053
2071.061308,0.000054
2071.543511,0.000028
2072.025713,-0.000026
2072.507916,0.000003
2072.990119,0.000055
2073.472322,0.000069
2073.954525,0.000082
2074.436728,0.000076
2074.918931,0.000031
2075.401134,-0.000016
2075.883336,-0.000023
2076.365539,-0.000014
2076.847742,0.000007
2077.329945,0.000057
2077.812148,0.000073
2078.294351,0.000053
2078.776554,0.000084
2079.258756,0.000091
2079.740959,0.000056
2080.223162,0.000142
2080.705365,0.000175
2081.187568,0.000021
2081.669771,-0.000032
2082.151974,0.000018
2082.634177,0.000014
2083.116379,0.000031
2083.598582,0.000028
2084.080785,-0.000002
2084.562988,0.000012
2085.045191,-0.000004
2085.527394,-0.000060
2086.009597,-0.000103
2086.491799,-0.000099
2086.974002,-0.000036
2087.456205,0.000006
2087.938408,-0.000011
2088.420611,-0.000025
2088.902814,0.000017
2089.385017,0.000022
2089.867220,-0.000050
2090.349422,-0.000041
2090.831625,0.000019
2091.313828,0.000018
2091.796031,0.000009
2092.278234,0.000008
2092.760437,-0.000003
2093.242640,-0.000027
2093.724842,-0.000019
2094.207045,0.000042
2094.689248,0.000055
2095.171451,-0.000006
2095.653654,-0.000048
2096.135857,-0.000053
2096.618060,-0.000046
2097.100262,0.000000
2097.582465,0.000082
2098.064668,0.000131
2098.546871,0.000078
2099.029074,-0.000038
2099.511277,-0.000044
2099.993480,0.000058
2100.475683,0.000074
2100.957885,0.000010
2101.440088,0.000004
2101.922291,-0.000002
2102.404494,-0.000033
2102.886697,-0.000011
2103.368900,0.000013
2103.851103,0.000041
2104.333305,0.000104
2104.815508,0.000080
2105.297711,-0.000009
2105.779914,-0.000029
2106.262117,-0.000017
2106.744320,0.000027
2107.226523,0.000084
2107.708726,0.000011
2108.190928,-0.000039
2108.673131,0.000061
2109.155334,0.000073
2109.637537,0.000018
2110.119740,0.000016
2110.601943,-0.000006
2111.084146,-0.000010
2111.566348,0.000002
2112.048551,0.000011
2112.530754,0.000038
2113.012957,0.000041
2113.495160,0.000089
2113.977363,0.000156
2114.459566,0.000133
2114.941769,0.000049
2115.423971,-0.000010
2115.906174,0.000014
2116.388377,0.000010
2116.870580,-0.000069
2117.352783,-0.000080
2117.834986,-0.000043
2118.317189,-0.000003
2118.799391,0.000061
2119.281594,0.000077
2119.763797,0.000034
2120.246000,0.000003
2120.728203,-0.000003
2121.210406,-0.000043
2121.692609,-0.000089
2122.174812,-0.000076
2122.657014,-0.000067
2123.139217,-0.000071
2123.621420,-0.000034
2124.103623,0.000000
2124.585826,-0.000006
2125.068029,0.000003
2125.550232,0.000062
2126.032434,0.000051
2126.514637,-0.000021
2126.996840,0.000001
2127.479043,0.000009
2127.961246,-0.000028
2128.443449,0.000011
2128.925652,0.000014
2129.407854,-0.000016
2129.890057,-0.000015
2130.372260,-0.000040
2130.854463,-0.000008
2131.336666,0.000059
2131.818869,0.000052
2132.301072,0.000026
2132.783275,0.000009
2133.265477,-0.000016
2133.747680,-0.000015
2134.229883,0.000043
2134.712086,0.000082
2135.194289,0.000022
2135.676492,-0.000018
2136.158695,-0.000006
2136.640897,-0.000026
2137.123100,-0.000008
2137.605303,0.000013
2138.087506,0.000014
2138.569709,0.000068
2139.051912,0.000050
2139.534115,0.000002
2140.016318,0.000033
2140.498520,0.000004
2140.980723,-0.000046
2141.462926,-0.000031
2141.945129,0.000005
2142.427332,0.000044
2142.909535,-0.000004
2143.391738,-0.000092
2143.873940,-0.000091
2144.356143,-0.000055
2144.838346,-0.000036
2145.320549,-0.000014
2145.802752,0.000022
2146.284955,0.000050
2146.767158,0.000046
2147.249361,0.000050
2147.731563,0.000053
2148.213766,-0.000003
2148.695969,-0.000020
2149.178172,0.000053
2149.660375,0.000050
2150.142578,-0.000005
2150.624781,0.000044
2151.106983,0.000069
2151.589186,-0.000032
2152.071389,-0.000130
2152.553592,-0.000169
2153.035795,-0.000139
2153.517998,-0.000039
2154.000201,0.000005
2154.482404,0.000004
2154.964606,0.000051
2155.446809,0.000025
2155.929012,-0.000055
2156.411215,-0.000058
2156.893418,-0.000051
2157.375621,-0.000039
2157.857824,0.000037
2158.340026,0.000107
2158.822229,0.000112
2159.304432,0.000072
2159.786635,-0.000006
2160.268838,-0.000046
2160.751041,0.000045
2161.233244,0.000105
2161.715446,-0.000007
2162.197649,-0.000087
2162.679852,-0.000036
2163.162055,0.000016
2163.644258,0.000036
2164.126461,0.000023
2164.608664,-0.000042
2165.090867,-0.000079
2165.573069,-0.000034
2166.055272,0.000022
2166.537475,0.000036
2167.019678,0.000047
2167.501881,0.000042
2167.984084,0.000001
2168.466287,-0.000015
2168.948489,-0.000004
2169.430692,0.000014
2169.912895,0.000031
2170.395098,0.000008
2170.877301,-0.000007
2171.359504,-0.000001
2171.841707,0.000008
2172.323910,0.000068
2172.806112,0.000093
2173.288315,0.000057
2173.770518,0.000095
2174.252721,0.000108
2174.734924,0.000041
2175.217127,0.000021
2175.699330,-0.000018
2176.181532,-0.000060
2176.663735,-0.000021
2177.145938,0.000029
2177.628141,0.000057
2178.110344,0.000068
2178.592547,0.000074
2179.074750,0.000076
2179.556953,0.000067
2180.039155,0.000068
2180.521358,0.000081
2181.003561,0.000104
2181.485764,0.000125
2181.967967,0.000114
2182.450170,0.000052
2182.932373,0.000031
2183.414575,0.000118
2183.896778,0.000160
2184.378981,0.000131
2184.861184,0.000114
2185.343387,0.000064
2185.825590,0.000040
2186.307793,0.000087
2186.789995,0.000088
2187.272198,0.000031
2187.754401,0.000032
2188.236604,0.000106
2188.718807,0.000152
2189.201010,0.000117
2189.683213,0.000055
2190.165416,0.000025
2190.647618,-0.000001
2191.129821,-0.000058
2191.612024,-0.000067
2192.094227,0.000009
2192.576430,0.000076
2193.058633,0.000124
2193.540836,0.000160
2194.023038,0.000089
2194.505241,0.000024
2194.987444,0.000123
2195.469647,0.000155
2195.951850,0.000018
2196.434053,0.000005
2196.916256,0.000130
2197.398459,0.000169
2197.880661,0.000101
2198.362864,0.000024
2198.845067,0.000051
2199.327270,0.000085
2199.809473,0.000034
2200.291676,0.000077
2200.773879,0.000171
2201.256081,0.000178
2201.738284,0.000178
2202.220487,0.000146
2202.702690,0.000071
2203.184893,0.000073
2203.667096,0.000134
2204.149299,0.000167
2204.631502,0.000135
2205.113704,0.000073
2205.595907,0.000094
2206.078110,0.000123
2206.560313,0.000087
2207.042516,0.000107
2207.524719,0.000096
2208.006922,0.000027
2208.489124,0.000042
2208.971327,0.000087
2209.453530,0.000110
2209.935733,0.000128
2210.417936,0.000117
2210.900139,0.000135
2211.382342,0.000230
2211.864545,0.000258
2212.346747,0.000179
2212.828950,0.000149
2213.311153,0.000151
2213.793356,0.000156
2214.275559,0.000155
2214.757762,0.000087
2215.239965,0.000056
2215.722167,0.000103
2216.204370,0.000149
2216.686573,0.000142
2217.168776,0.000076
2217.650979,0.000047
2218.133182,0.000080
2218.615385,0.000098
2219.097587,0.000039
2219.579790,-0.000002
2220.061993,0.000027
2220.544196,-0.000006
2221.026399,-0.000033
2221.508602,0.000058
2221.990805,0.000182
2222.473008,0.000242
2222.955210,0.000215
2223.437413,0.000212
2223.919616,0.000247
2224.401819,0.000213
2224.884022,0.000158
2225.366225,0.000124
2225.848428,0.000106
2226.330630,0.000140
2226.812833,0.000154
2227.295036,0.000117
2227.777239,0.000083
2228.259442,0.000032
2228.741645,0.000017
2229.223848,0.000072
2229.706051,0.000128
2230.188253,0.000178
2230.670456,0.000195
2231.152659,0.000180
2231.634862,0.000183
2232.117065,0.000165
2232.599268,0.000144
2233.081471,0.000147
2233.563673,0.000110
2234.045876,0.000084
2234.528079,0.000125
2235.010282,0.000161
2235.492485,0.000150
2235.974688,0.000155
2236.456891,0.000199
2236.939094,0.000179
2237.421296,0.000129
2237.903499,0.000144
2238.385702,0.000146
2238.867905,0.000096
2239.350108,0.000039
2239.832311,0.000044
2240.314514,0.000101
2240.796716,0.000086
2241.278919,0.000070
2241.761122,0.000140
2242.243325,0.000176
2242.725528,0.000152
2243.207731,0.000118
2243.689934,0.000106
2244.172137,0.000131
2244.654339,0.000158
2245.136542,0.000150
2245.618745,0.000132
2246.100948,0.000159
2246.583151,0.000210
2247.065354,0.000219
2247.547557,0.000184
2248.029759,0.000130
2248.511962,0.000132
2248.994165,0.000206
2249.476368,0.000233
2249.958571,0.000171
2250.440774,0.000096
2250.922977,0.000078
2251.405179,0.000122
2251.887382,0.000146
2252.369585,0.000106
2252.851788,0.000082
2253.333991,0.000094
2253.816194,0.000088
2254.298397,0.000099
2254.780600,0.000148
2255.262802,0.000134
2255.745005,0.000041
2256.227208,0.000034
2256.709411,0.000112
2257.191614,0.000116
2257.673817,0.000107
2258.156020,0.000101
2258.638222,0.000046
2259.120425,0.000079
2259.602628,0.000126
2260.084831,0.000084
2260.567034,0.000093
2261.049237,0.000098
2261.531440,0.000018
2262.013643,-0.000008
2262.495845,-0.000002
2262.978048,-0.000017
2263.460251,0.000025
2263.942454,0.000065
2264.424657,0.000067
2264.906860,0.000072
2265.389063,0.000114
2265.871265,0.000188
2266.353468,0.000132
2266.835671,0.000025
2267.317874,0.000073
2267.800077,0.000134
2268.282280,0.000112
2268.764483,0.000059
2269.246686,0.000013
2269.728888,0.000045
2270.211091,0.000107
2270.693294,0.000141
2271.175497,0.000153
2271.657700,0.000120
2272.139903,0.000069
2272.622106,0.000022
2273.104308,-0.000039
2273.586511,-0.000051
2274.068714,0.000027
2274.550917,0.000121
2275.033120,0.000136
2275.515323,0.000065
2275.997526,0.000028
2276.479729,0.000066
2276.961931,0.000095
2277.444134,0.000124
2277.926337,0.000189
2278.408540,0.000206
2278.890743,0.000117
2279.372946,0.000097
2279.855149,0.000180
2280.337351,0.000153
2280.819554,0.000100
2281.301757,0.000121
2281.783960,0.000114
2282.266163,0.000128
2282.748366,0.000152
2283.230569,0.000147
2283.712771,0.000185
2284.194974,0.000205
2284.677177,0.000150
2285.159380,0.000109
2285.641583,0.000081
2286.123786,0.000033
2286.605989,0.000055
2287.088192,0.000056
2287.570394,-0.000023
2288.052597,0.000021
2288.534800,0.000073
2289.017003,0.000023
2289.499206,0.000058
2289.981409,0.000063
2290.463612,-0.000026
2290.945814,-0.000023
2291.428017,-0.000014
2291.910220,-0.000051
2292.392423,-0.000035
2292.874626,-0.000031
2293.356829,-0.000045
2293.839032,-0.000057
2294.321235,-0.000062
2294.803437,-0.000031
2295.285640,-0.000051
2295.767843,-0.000104
2296.250046,-0.000104
2296.732249,-0.000096
2297.214452,-0.000096
2297.696655,-0.000088
2298.178857,-0.000083
2298.661060,-0.000105
2299.143263,-0.000127
2299.625466,-0.000165
2300.107669,-0.000214
2300.589872,-0.000221
2301.072075,-0.000270
2301.554278,-0.000246
2302.036480,-0.000186
2302.518683,-0.000160
2303.000886,-0.000063
2303.483089,0.000043
2303.965292,0.000135
2304.447495,0.000165
2304.929698,0.000043
2305.411900,0.000145
2305.894103,0.000415
2306.376306,0.000448
2306.858509,0.000365
2307.340712,0.000338
2307.822915,0.000496
2308.305118,0.000666
2308.787320,0.000526
2309.269523,0.000389
2309.751726,0.000627
2310.233929,0.000881
2310.716132,0.000703
2311.198335,0.000406
2311.680538,0.000528
2312.162741,0.000806
2312.644943,0.000774
2313.127146,0.000463
2313.609349,0.000466
2314.091552,0.000879
2314.573755,0.000924
2315.055958,0.000459
2315.538161,0.000288
2316.020363,0.000749
2316.502566,0.001054
2316.984769,0.000721
2317.466972,0.000396
2317.949175,0.000686
2318.431378,0.000932
2318.913581,0.000479
2319.395784,-0.000031
2319.877986,0.000376
2320.360189,0.000903
2320.842392,0.000467
2321.324595,-0.000168
2321.806798,0.000321
2322.289001,0.000922
2322.771204,0.000391
2323.253406,-0.000341
2323.735609,0.000234
2324.217812,0.000959
2324.700015,0.000477
2325.182218,-0.000157
2325.664421,0.000458
2326.146624,0.001067
2326.628827,0.000612
2327.111029,0.000016
2327.593232,0.000558
2328.075435,0.001071
2328.557638,0.000390
2329.039841,-0.000143
2329.522044,0.000675
2330.004247,0.001025
2330.486449,0.000187
2330.968652,-0.000133
2331.450855,0.000812
2331.933058,0.000927
2332.415261,-0.000048
2332.897464,0.000153
2333.379667,0.001218
2333.861870,0.000930
2334.344072,-0.000067
2334.826275,0.000437
2335.308478,0.001251
2335.790681,0.000601
2336.272884,-0.000137
2336.755087,0.000735
2337.237290,0.001095
2337.719492,0.000121
2338.201695,0.000132
2338.683898,0.001114
2339.166101,0.000743
2339.648304,-0.000084
2340.130507,0.000718
2340.612710,0.001234
2341.094912,0.000387
2341.577115,0.000323
2342.059318,0.001198
2342.541521,0.000867
2343.023724,0.000258
2343.505927,0.001090
2343.988130,0.001446
2344.470333,0.000758
2344.952535,0.001095
2345.434738,0.001864
2345.916941,0.001487
2346.399144,0.001360
2346.881347,0.002237
2347.363550,0.002514
2347.845753,0.002351
2348.327955,0.002686
2348.810158,0.002989
2349.292361,0.002940
2349.774564,0.002691
2350.256767,0.002460
2350.738970,0.002448
2351.221173,0.002066
2351.703376,0.001519
2352.185578,0.001757
2352.667781,0.001699
2353.149984,0.000963
2353.632187,0.001086
2354.114390,0.001104
2354.596593,0.000290
2355.078796,0.000589
2355.560998,0.000912
2356.043201,0.000104
2356.525404,0.000334
2357.007607,0.000678
2357.489810,-0.000133
2357.972013,0.000104
2358.454216,0.000420
2358.936419,-0.000247
2359.418621,0.000181
2359.900824,0.000391
2360.383027,-0.000129
2360.865230,0.000495
2361.347433,0.000518
2361.829636,0.000026
2362.311839,0.000611
2362.794041,0.000522
2363.276244,0.000427
2363.758447,0.000847
2364.240650,0.000399
2364.722853,0.000415
2365.205056,0.000524
2365.687259,0.000075
2366.169462,0.000396
2366.651664,0.000149
2367.133867,-0.000128
2367.616070,0.000131
2368.098273,-0.000115
2368.580476,-0.000056
2369.062679,-0.000111
2369.544882,-0.000208
2370.027084,-0.000019
2370.509287,-0.000122
2370.991490,-0.000074
2371.473693,-0.000174
2371.955896,-0.000268
2372.438099,-0.000189
2372.920302,-0.000311
2373.402504,-0.000237
2373.884707,-0.000165
2374.366910,-0.000129
2374.849113,-0.000065
2375.331316,-0.000128
2375.813519,-0.000143
2376.295722,-0.000156
2376.777925,-0.000161
2377.260127,-0.000222
2377.742330,-0.000302
2378.224533,-0.000294
2378.706736,-0.000338
2379.188939,-0.000436
2379.671142,-0.000477
2380.153345,-0.000505
2380.635547,-0.000650
2381.117750,-0.000616
2381.599953,-0.000513
2382.082156,-0.000441
2382.564359,-0.000348
2383.046562,-0.000295
2383.528765,-0.000219
2384.010968,-0.000172
2384.493170,-0.000216
2384.975373,-0.000131
2385.457576,-0.000024
2385.939779,-0.000058
2386.421982,-0.000131
2386.904185,-0.000124
2387.386388,-0.000051
2387.868590,-0.000063
2388.350793,-0.000100
2388.832996,-0.000040
2389.315199,-0.000020
2389.797402,-0.000048
2390.279605,-0.000015
2390.761808,-0.000035
2391.244011,-0.000119
2391.726213,-0.000126
2392.208416,-0.000079
2392.690619,-0.000052
2393.172822,-0.000047
2393.655025,-0.000039
2394.137228,-0.000013
2394.619431,-0.000030
2395.101633,-0.000090
2395.583836,-0.000075
2396.066039,-0.000003
2396.548242,0.000031
2397.030445,0.000028
2397.512648,-0.000007
2397.994851,-0.000062
2398.477053,-0.000069
2398.959256,-0.000002
2399.441459,0.000034
2399.923662,-0.000030
2400.405865,-0.000086
2400.888068,-0.000059
2401.370271,-0.000012
2401.852474,-0.000021
2402.334676,-0.000069
2402.816879,-0.000080
2403.299082,-0.000057
2403.781285,-0.000053
2404.263488,-0.000057
2404.745691,-0.000060
2405.227894,-0.000077
2405.710096,-0.000066
2406.192299,-0.000047
2406.674502,-0.000059
2407.156705,-0.000078
2407.638908,-0.000080
2408.121111,-0.000022
2408.603314,0.000022
2409.085517,-0.000003
2409.567719,-0.000012
2410.049922,-0.000020
2410.532125,-0.000032
2411.014328,-0.000039
2411.496531,-0.000046
2411.978734,-0.000034
2412.460937,-0.000058
2412.943139,-0.000055
2413.425342,-0.000009
2413.907545,-0.000044
2414.389748,-0.000061
2414.871951,-0.000036
2415.354154,-0.000071
2415.836357,-0.000086
2416.318560,-0.000036
2416.800762,0.000037
2417.282965,0.000073
2417.765168,0.000028
2418.247371,-0.000047
2418.729574,-0.000094
2419.211777,-0.000073
2419.693980,-0.000044
2420.176182,-0.000050
2420.658385,-0.000034
2421.140588,-0.000056
2421.622791,-0.000131
2422.104994,-0.000105
2422.587197,-0.000014
2423.069400,-0.000029
2423.551603,-0.000036
2424.033805,0.000053
2424.516008,0.000066
2424.998211,0.000023
2425.480414,0.000037
2425.962617,0.000039
2426.444820,0.000001
2426.927023,-0.000027
2427.409225,-0.000033
2427.891428,-0.000050
2428.373631,-0.000070
2428.855834,-0.000044
2429.338037,-0.000036
2429.820240,-0.000048
2430.302443,-0.000008
2430.784645,-0.000011
2431.266848,-0.000057
2431.749051,-0.000057
2432.231254,-0.000054
2432.713457,-0.000054
2433.195660,-0.000067
2433.677863,-0.000138
2434.160066,-0.000186
2434.642268,-0.000094
2435.124471,-0.000003
2435.606674,-0.000048
2436.088877,-0.000029
2436.571080,0.000012
2437.053283,-0.000059
2437.535486,-0.000054
2438.017688,0.000001
2438.499891,0.000037
2438.982094,0.000107
2439.464297,0.000127
2439.946500,0.000054
2440.428703,-0.000065
2440.910906,-0.000094
2441.393109,0.000019
2441.875311,0.000071
2442.357514,-0.000000
2442.839717,-0.000003
2443.321920,0.000068
2443.804123,0.000044
2444.286326,0.000012
2444.768529,0.000046
2445.250731,0.000030
2445.732934,0.000006
2446.215137,0.000016
2446.697340,-0.000012
2447.179543,-0.000053
2447.661746,-0.000011
2448.143949,0.000066
2448.626152,0.000077
2449.108354,0.000129
2449.590557,0.000183
2450.072760,0.000125
2450.554963,0.000094
2451.037166,0.000058
2451.519369,-0.000038
2452.001572,-0.000068
2452.483774,-0.000074
2452.965977,-0.000057
2453.448180,-0.000018
2453.930383,-0.000056
2454.412586,0.000012
2454.894789,0.000188
2455.376992,0.000166
2455.859195,0.000047
2456.341397,0.000016
2456.823600,-0.000003
2457.305803,-0.000007
2457.788006,0.000013
2458.270209,0.000014
2458.752412,0.000001
2459.234615,-0.000017
2459.716817,-0.000043
2460.199020,-0.000066
2460.681223,-0.000054
2461.163426,-0.000008
2461.645629,0.000057
2462.127832,0.000117
2462.610035,0.000105
2463.092237,0.000032
2463.574440,0.000020
2464.056643,0.000100
2464.538846,0.000064
2465.021049,-0.000066
2465.503252,-0.000004
2465.985455,0.000057
2466.467658,-0.000059
2466.949860,-0.000043
2467.432063,0.000052
2467.914266,0.000006
2468.396469,-0.000049
2468.878672,-0.000048
2469.360875,-0.000064
2469.843078,-0.000090
2470.325280,-0.000088
2470.807483,-0.000051
2471.289686,0.000020
2471.771889,0.000077
2472.254092,0.000083
2472.736295,0.000059
2473.218498,0.000035
2473.700701,0.000047
2474.182903,0.000027
2474.665106,-0.000002
2475.147309,0.000044
2475.629512,0.000035
2476.111715,-0.000030
2476.593918,-0.000036
2477.076121,-0.000054
2477.558323,-0.000046
2478.040526,0.000040
2478.522729,0.000056
2479.004932,-0.000009
2479.487135,-0.000033
2479.969338,-0.000054
2480.451541,0.000007
2480.933744,0.000166
2481.415946,0.000164
2481.898149,0.000053
2482.380352,0.000008
2482.862555,0.000034
2483.344758,0.000053
2483.826961,-0.000030
2484.309164,-0.000039
2484.791366,0.000034
2485.273569,0.000022
2485.755772,0.000027
2486.237975,0.000045
2486.720178,0.000050
2487.202381,0.000083
2487.684584,0.000079
2488.166786,0.000043
2488.648989,0.000068
2489.131192,0.000145
2489.613395,0.000099
2490.095598,0.000005
2490.577801,0.000008
2491.060004,-0.000046
2491.542207,-0.000105
2492.024409,-0.000036
2492.506612,0.000062
2492.988815,0.000144
2493.471018,0.000189
2493.953221,0.000153
2494.435424,0.000114
2494.917627,0.000133
2495.399829,0.000098
2495.882032,0.000028
2496.364235,0.000070
2496.846438,0.000118
2497.328641,0.000109
2497.810844,0.000092
2498.293047,0.000048
2498.775250,0.000102
2499.257452,0.000169
2499.739655,0.000072
2500.221858,0.000018
2500.704061,0.000069
2501.186264,0.000087
2501.668467,0.000053
2502.150670,-0.000006
2502.632872,0.000010
2503.115075,0.000030
2503.597278,-0.000050
2504.079481,-0.000071
2504.561684,0.000019
2505.043887,0.000091
2505.526090,0.000027
2506.008293,-0.000083
2506.490495,-0.000025
2506.972698,0.000070
2507.454901,0.000067
2507.937104,0.000082
2508.419307,0.000072
2508.901510,0.000031
2509.383713,0.000069
2509.865915,0.000087
2510.348118,0.000025
2510.830321,-0.000014
2511.312524,-0.000010
2511.794727,0.000021
2512.276930,0.000068
2512.759133,0.000084
2513.241336,0.000048
2513.723538,0.000039
2514.205741,0.000100
2514.687944,0.000110
2515.170147,0.000103
2515.652350,0.000149
2516.134553,0.000125
2516.616756,0.000058
2517.098958,0.000069
2517.581161,0.000112
2518.063364,0.000089
2518.545567,0.000018
2519.027770,0.000039
2519.509973,0.000082
2519.992176,-0.000002
2520.474378,-0.000095
2520.956581,-0.000058
2521.438784,0.000026
2521.920987,0.000007
2522.403190,-0.000078
2522.885393,-0.000086
2523.367596,-0.000020
2523.849799,0.000001
2524.332001,-0.000012
2524.814204,0.000009
2525.296407,0.000008
2525.778610,0.000024
2526.260813,0.000049
2526.743016,-0.000001
2527.225219,0.000012
2527.707421,0.000080
2528.189624,0.000068
2528.671827,0.000019
2529.154030,-0.000010
2529.636233,-0.000015
2530.118436,-0.000015
2530.600639,-0.000004
2531.082842,0.000008
2531.565044,0.000001
2532.047247,-0.000015
2532.529450,-0.000033
2533.011653,0.000030
2533.493856,0.000112
2533.976059,0.000101
2534.458262,0.000078
2534.940464,0.000049
2535.422667,0.000010
2535.904870,0.000002
2536.387073,0.000013
2536.869276,0.000082
2537.351479,0.000077
2537.833682,-0.000045
2538.315885,-0.000096
2538.798087,-0.000089
2539.280290,-0.000025
2539.762493,0.000005
2540.244696,-0.000077
2540.726899,-0.000027
2541.209102,0.000066
2541.691305,0.000032
2542.173507,-0.000016
2542.655710,-0.000059
2543.137913,-0.000053
2543.620116,-0.000013
2544.102319,0.000016
2544.584522,0.000038
2545.066725,0.000033
2545.548928,0.000058
2546.031130,0.000112
2546.513333,0.000156
2546.995536,0.000166
2547.477739,0.000127
2547.959942,0.000046
2548.442145,-0.000010
2548.924348,0.000034
2549.406550,0.000044
2549.888753,-0.000038
2550.370956,-0.000058
2550.853159,0.000009
2551.335362,0.000018
2551.817565,-0.000075
2552.299768,-0.000124
2552.781970,-0.000116
2553.264173,-0.000122
2553.746376,-0.000083
2554.228579,-0.000001
2554.710782,0.000042
2555.192985,0.000011
2555.675188,-0.000040
2556.157391,-0.000076
2556.639593,-0.000099
2557.121796,-0.000058
2557.603999,0.000063
2558.086202,0.000119
2558.568405,0.000025
2559.050608,-0.000034
2559.532811,-0.000007
2560.015013,0.000018
2560.497216,0.000072
2560.979419,0.000145
2561.461622,0.000198
2561.943825,0.000159
2562.426028,0.000062
2562.908231,0.000074
2563.390434,0.000138
2563.872636,0.000127
2564.354839,0.000041
2564.837042,-0.000056
2565.319245,-0.000043
2565.801448,0.000046
2566.283651,0.000059
2566.765854,-0.000014
2567.248056,-0.000047
2567.730259,0.000042
2568.212462,0.000122
2568.694665,0.000044
2569.176868,-0.000079
2569.659071,-0.000096
2570.141274,-0.000039
2570.623477,0.000003
2571.105679,0.000020
2571.587882,0.000029
2572.070085,-0.000007
2572.552288,-0.000067
2573.034491,-0.000089
2573.516694,-0.000069
2573.998897,-0.000041
2574.481099,-0.000054
2574.963302,-0.000084
2575.445505,-0.000069
2575.927708,-0.000006
2576.409911,0.000051
2576.892114,0.000040
2577.374317,-0.000021
2577.856520,-0.000010
2578.338722,0.000075
2578.820925,0.000059
2579.303128,-0.000061
2579.785331,-0.000117
2580.267534,-0.000079
2580.749737,0.000024
2581.231940,0.000116
2581.714142,0.000054
2582.196345,-0.000066
2582.678548,-0.000067
2583.160751,-0.000015
2583.642954,-0.000023
2584.125157,-0.000100
2584.607360,-0.000186
2585.089562,-0.000219
2585.571765,-0.000181
2586.053968,-0.000097
2586.536171,-0.000035
2587.018374,-0.000046
2587.500577,-0.000079
2587.982780,-0.000061
2588.464983,-0.000032
2588.947185,-0.000023
2589.429388,0.000006
2589.911591,0.000034
2590.393794,0.000039
2590.875997,0.000009
2591.358200,-0.000019
2591.840403,-0.000007
2592.322605,-0.000009
2592.804808,-0.000003
2593.287011,-0.000015
2593.769214,-0.000037
2594.251417,0.000039
2594.733620,0.000068
2595.215823,-0.000030
2595.698026,-0.000099
2596.180228,-0.000106
2596.662431,-0.000124
2597.144634,-0.000114
2597.626837,-0.000027
2598.109040,0.000031
2598.591243,-0.000011
2599.073446,-0.000128
2599.555648,-0.000179
2600.037851,-0.000055
2600.520054,0.000032
2601.002257,0.000013
2601.484460,0.000000
2601.966663,-0.000056
2602.448866,-0.000095
2602.931069,-0.000074
2603.413271,-0.000041
2603.895474,0.000034
2604.377677,0.000069
2604.859880,0.000020
2605.342083,-0.000044
2605.824286,-0.000085
2606.306489,-0.000028
2606.788691,0.000033
2607.270894,-0.000026
2607.753097,-0.000068
2608.235300,-0.000048
2608.717503,-0.000048
2609.199706,-0.000020
2609.681909,0.000024
2610.164111,-0.000018
2610.646314,-0.000058
2611.128517,0.000041
2611.610720,0.000074
2612.092923,-0.000038
2612.575126,-0.000066
2613.057329,-0.000021
2613.539532,0.000038
2614.021734,0.000017
2614.503937,-0.000172
2614.986140,-0.000202
2615.468343,-0.000058
2615.950546,-0.000019
2616.432749,0.000003
2616.914952,-0.000015
2617.397154,-0.000117
2617.879357,-0.000101
2618.361560,0.000004
2618.843763,0.000029
2619.325966,0.000044
2619.808169,0.000115
2620.290372,0.000097
2620.772575,-0.000031
2621.254777,-0.000120
2621.736980,-0.000139
2622.219183,-0.000107
2622.701386,-0.000041
2623.183589,-0.000006
2623.665792,-0.000025
2624.147995,-0.000077
2624.630197,-0.000139
2625.112400,-0.000128
2625.594603,-0.000036
2626.076806,-0.000011
2626.559009,-0.000046
2627.041212,-0.000035
2627.523415,-0.000032
2628.005618,-0.000040
2628.487820,0.000016
2628.970023,-0.000009
2629.452226,-0.000160
2629.934429,-0.000170
2630.416632,-0.000069
2630.898835,-0.000097
2631.381038,-0.000174
2631.863240,-0.000155
2632.345443,-0.000061
2632.827646,0.000032
2633.309849,0.000049
2633.792052,-0.000017
2634.274255,-0.000042
2634.756458,0.000032
2635.238661,0.000024
2635.720863,-0.000099
2636.203066,-0.000166
2636.685269,-0.000146
2637.167472,-0.000058
2637.649675,-0.000008
2638.131878,-0.000046
2638.614081,0.000024
2639.096283,0.000138
2639.578486,0.000086
2640.060689,0.000014
2640.542892,0.000022
2641.025095,-0.000016
2641.507298,-0.000036
2641.989501,0.000033
2642.471703,0.000056
2642.953906,-0.000002
2643.436109,-0.000044
2643.918312,-0.000036
2644.400515,-0.000029
2644.882718,-0.000002
2645.364921,0.000014
2645.847124,-0.000073
2646.329326,-0.000079
2646.811529,0.000041
2647.293732,0.000081
2647.775935,0.000037
2648.258138,-0.000049
2648.740341,-0.000091
2649.222544,-0.000028
2649.704746,0.000034
2650.186949,0.000081
2650.669152,0.000130
2651.151355,0.000101
2651.633558,-0.000001
2652.115761,-0.000046
2652.597964,-0.000042
2653.080167,-0.000041
2653.562369,0.000001
2654.044572,0.000004
2654.526775,-0.000073
2655.008978,-0.000168
2655.491181,-0.000172
2655.973384,-0.000040
2656.455587,0.000029
2656.937789,-0.000014
2657.419992,-0.000032
2657.902195,-0.000004
2658.384398,0.000007
2658.866601,-0.000009
2659.348804,0.000043
2659.831007,0.000084
2660.313210,0.000004
2660.795412,-0.000023
2661.277615,0.000052
2661.759818,0.000048
2662.242021,0.000013
2662.724224,0.000025
2663.206427,-0.000054
2663.688630,-0.000079
2664.170832,0.000044
2664.653035,0.000074
2665.135238,0.000056
2665.617441,0.000023
2666.099644,-0.000107
2666.581847,-0.000098
2667.064050,0.000045
2667.546253,0.000047
2668.028455,-0.000046
2668.510658,-0.000063
2668.992861,-0.000025
2669.475064,-0.000068
2669.957267,-0.000122
2670.439470,-0.000021
2670.921673,0.000100
2671.403875,0.000052
2671.886078,-0.000086
2672.368281,-0.000136
2672.850484,-0.000062
2673.332687,0.000031
2673.814890,0.000028
2674.297093,-0.000071
2674.779295,-0.000133
2675.261498,-0.000120
2675.743701,-0.000141
2676.225904,-0.000174
2676.708107,-0.000072
2677.190310,0.000104
2677.672513,0.000179
2678.154716,0.000150
2678.636918,0.000051
2679.119121,-0.000031
2679.601324,-0.000037
2680.083527,-0.000085
2680.565730,-0.000113
2681.047933,-0.000046
2681.530136,-0.000056
2682.012338,-0.000137
2682.494541,-0.000137
2682.976744,-0.000081
2683.458947,-0.000005
2683.941150,0.000079
2684.423353,0.000100
2684.905556,0.000069
2685.387759,0.000023
2685.869961,-0.000028
2686.352164,-0.000070
2686.834367,-0.000046
2687.316570,0.000047
2687.798773,0.000072
2688.280976,-0.000018
2688.763179,-0.000090
2689.245381,-0.000057
2689.727584,-0.000035
2690.209787,-0.000070
2690.691990,-0.000060
2691.174193,-0.000062
2691.656396,-0.000059
2692.138599,-0.000009
2692.620802,-0.000015
2693.103004,-0.000018
2693.585207,0.000020
2694.067410,0.000031
2694.549613,-0.000009
2695.031816,-0.000029
2695.514019,0.000016
2695.996222,0.000003
2696.478424,-0.000055
2696.960627,-0.000053
2697.442830,-0.000033
2697.925033,-0.000065
2698.407236,-0.000096
2698.889439,-0.000020
2699.371642,0.000070
2699.853844,0.000073
2700.336047,0.000017
2700.818250,-0.000028
2701.300453,-0.000007
2701.782656,0.000014
2702.264859,0.000031
2702.747062,0.000057
2703.229265,0.000046
2703.711467,0.000051
2704.193670,0.000079
2704.675873,0.000074
2705.158076,0.000047
2705.640279,0.000027
2706.122482,0.000012
2706.604685,0.000018
2707.086887,0.000046
2707.569090,-0.000007
2708.051293,-0.000058
2708.533496,0.000008
2709.015699,0.000034
2709.497902,0.000027
2709.980105,0.000039
2710.462308,-0.000004
2710.944510,-0.000005
2711.426713,0.000009
2711.908916,-0.000018
2712.391119,0.000020
2712.873322,0.000082
2713.355525,0.000112
2713.837728,0.000128
2714.319930,0.000114
2714.802133,0.000049
2715.284336,0.000010
2715.766539,0.000100
2716.248742,0.000117
2716.730945,0.000017
2717.213148,0.000076
2717.695351,0.000130
2718.177553,0.000039
2718.659756,0.000003
2719.141959,-0.000080
2719.624162,-0.000143
2720.106365,0.000023
2720.588568,0.000128
2721.070771,0.000082
2721.552973,0.000057
2722.035176,0.000020
2722.517379,-0.000019
2722.999582,-0.000052
2723.481785,-0.000065
2723.963988,0.000015
2724.446191,0.000137
2724.928394,0.000177
2725.410596,0.000104
2725.892799,0.000013
2726.375002,-0.000049
2726.857205,-0.000042
2727.339408,0.000027
2727.821611,0.000066
2728.303814,0.000076
2728.786016,0.000087
2729.268219,0.000150
2729.750422,0.000210
2730.232625,0.000128
2730.714828,0.000052
2731.197031,0.000076
2731.679234,0.000085
2732.161436,0.000084
2732.643639,0.000124
2733.125842,0.000187
2733.608045,0.000172
2734.090248,0.000056
2734.572451,-0.000010
2735.054654,0.000032
2735.536857,0.000054
2736.019059,-0.000034
2736.501262,-0.000115
2736.983465,-0.000094
2737.465668,-0.000073
2737.947871,-0.000073
2738.430074,-0.000067
2738.912277,-0.000043
2739.394479,-0.000013
2739.876682,-0.000079
2740.358885,-0.000150
2740.841088,-0.000088
2741.323291,0.000001
2741.805494,0.000030
2742.287697,0.000063
2742.769900,0.000127
2743.252102,0.000129
2743.734305,0.000025
2744.216508,-0.000027
2744.698711,0.000094
2745.180914,0.000197
2745.663117,0.000167
2746.145320,0.000131
2746.627522,0.000083
2747.109725,0.000058
2747.591928,0.000085
2748.074131,0.000066
2748.556334,0.000056
2749.038537,0.000049
2749.520740,-0.000036
2750.002943,-0.000086
2750.485145,0.000027
2750.967348,0.000135
2751.449551,0.000079
2751.931754,0.000066
2752.413957,0.000129
2752.896160,0.000107
2753.378363,0.000043
2753.860565,-0.000021
2754.342768,-0.000012
2754.824971,0.000110
2755.307174,0.000160
2755.789377,0.000077
2756.271580,0.000033
2756.753783,0.000080
2757.235986,0.000065
2757.718188,-0.000030
2758.200391,0.000038
2758.682594,0.000224
2759.164797,0.000182
2759.647000,0.000043
2760.129203,0.000078
2760.611406,0.000163
2761.093608,0.000183
2761.575811,0.000084
2762.058014,-0.000103
2762.540217,-0.000117
2763.022420,0.000009
2763.504623,0.000029
2763.986826,0.000000
2764.469028,0.000012
2764.951231,-0.000006
2765.433434,-0.000042
2765.915637,0.000010
2766.397840,0.000095
2766.880043,0.000099
2767.362246,0.000108
2767.844449,0.000086
2768.326651,-0.000030
2768.808854,-0.000052
2769.291057,0.000006
2769.773260,0.000023
2770.255463,0.000055
2770.737666,0.000035
2771.219869,-0.000069
2771.702071,-0.000050
2772.184274,0.000100
2772.666477,0.000175
2773.148680,0.000162
2773.630883,0.000137
2774.113086,0.000147
2774.595289,0.000178
2775.077492,0.000128
2775.559694,0.000074
2776.041897,0.000097
2776.524100,0.000112
2777.006303,0.000112
2777.488506,0.000086
2777.970709,0.000016
2778.452912,-0.000092
2778.935114,-0.000185
2779.417317,-0.000141
2779.899520,-0.000044
2780.381723,-0.000020
2780.863926,0.000017
2781.346129,0.000085
2781.828332,0.000103
2782.310535,0.000065
2782.792737,0.000019
2783.274940,-0.000021
2783.757143,-0.000036
2784.239346,0.000017
2784.721549,0.000115
2785.203752,0.000117
2785.685955,0.000025
2786.168157,0.000030
2786.650360,0.000059
2787.132563,0.000015
2787.614766,0.000028
2788.096969,0.000032
2788.579172,0.000058
2789.061375,0.000128
2789.543577,0.000043
2790.025780,-0.000037
2790.507983,0.000035
2790.990186,0.000095
2791.472389,0.000078
2791.954592,0.000005
2792.436795,-0.000030
2792.918998,0.000023
2793.401200,0.000080
2793.883403,0.000082
2794.365606,0.000083
2794.847809,0.000116
2795.330012,0.000115
2795.812215,0.000069
2796.294418,0.000031
2796.776620,0.000015
2797.258823,0.000029
2797.741026,0.000061
2798.223229,0.000042
2798.705432,0.000012
2799.187635,0.000032
2799.669838,0.000043
2800.152041,0.000057
2800.634243,0.000076
2801.116446,0.000083
2801.598649,0.000081
2802.080852,0.000016
2802.563055,-0.000040
2803.045258,0.000041
2803.527461,0.000184
2804.009663,0.000178
2804.491866,0.000088
2804.974069,0.000094
2805.456272,0.000037
2805.938475,-0.000119
2806.420678,-0.000175
2806.902881,-0.000132
2807.385084,-0.000059
2807.867286,0.000005
2808.349489,0.000035
2808.831692,0.000054
2809.313895,0.000053
2809.796098,-0.000005
2810.278301,-0.000022
2810.760504,0.000095
2811.242706,0.000127
2811.724909,0.000010
2812.207112,-0.000005
2812.689315,0.000040
2813.171518,0.000028
2813.653721,0.000033
2814.135924,0.000030
2814.618127,0.000041
2815.100329,0.000065
2815.582532,0.000031
2816.064735,0.000014
2816.546938,-0.000029
2817.029141,-0.000090
2817.511344,-0.000045
2817.993547,0.000013
2818.475749,0.000009
2818.957952,-0.000009
2819.440155,0.000011
2819.922358,0.000047
2820.404561,-0.000003
2820.886764,-0.000038
2821.368967,0.000080
2821.851169,0.000179
2822.333372,0.000105
2822.815575,0.000044
2823.297778,0.000083
2823.779981,0.000082
2824.262184,0.000090
2824.744387,0.000110
2825.226590,0.000060
2825.708792,-0.000003
2826.190995,-0.000044
2826.673198,-0.000018
2827.155401,0.000008
2827.637604,-0.000007
2828.119807,0.000026
2828.602010,0.000016
2829.084212,-0.000053
2829.566415,-0.000071
2830.048618,-0.000044
2830.530821,0.000030
2831.013024,0.000078
2831.495227,0.000004
2831.977430,-0.000100
2832.459633,-0.000108
2832.941835,-0.000063
2833.424038,-0.000078
2833.906241,-0.000105
2834.388444,-0.000060
2834.870647,0.000015
2835.352850,0.000054
2835.835053,0.000020
2836.317255,-0.000001
2836.799458,-0.000004
2837.281661,-0.000080
2837.763864,-0.000108
2838.246067,-0.000088
2838.728270,-0.000070
2839.210473,0.000010
2839.692676,0.000020
2840.174878,-0.000059
2840.657081,-0.000120
2841.139284,-0.000131
2841.621487,-0.000076
2842.103690,-0.000025
2842.585893,0.000086
2843.068096,0.000234
2843.550298,0.000160
2844.032501,0.000009
2844.514704,0.000031
2844.996907,0.000034
2845.479110,-0.000008
2845.961313,0.000027
2846.443516,0.000050
2846.925719,0.000103
2847.407921,0.000112
2847.890124,-0.000001
2848.372327,-0.000017
2848.854530,0.000004
2849.336733,-0.000033
2849.818936,-0.000029
2850.301139,-0.000031
2850.783341,-0.000082
2851.265544,-0.000101
2851.747747,-0.000020
2852.229950,0.000032
2852.712153,-0.000009
2853.194356,-0.000032
2853.676559,-0.000155
2854.158761,-0.000343
2854.640964,-0.000347
2855.123167,-0.000263
2855.605370,-0.000164
2856.087573,-0.000057
2856.569776,-0.000103
2857.051979,-0.000088
2857.534182,0.000119
2858.016384,0.000177
2858.498587,0.000086
2858.980790,0.000096
2859.462993,0.000104
2859.945196,0.000024
2860.427399,0.000027
2860.909602,0.000024
2861.391804,-0.000104
2861.874007,-0.000091
2862.356210,0.000106
2862.838413,0.000214
2863.320616,0.000142
2863.802819,0.000058
2864.285022,0.000046
2864.767225,-0.000011
2865.249427,-0.000048
2865.731630,0.000059
2866.213833,0.000186
2866.696036,0.000201
2867.178239,0.000149
2867.660442,0.000080
2868.142645,0.000023
2868.624847,0.000078
2869.107050,0.000147
2869.589253,0.000142
2870.071456,0.000134
2870.553659,-0.000036
2871.035862,-0.000301
2871.518065,-0.000225
2872.000268,0.000072
2872.482470,0.000059
2872.964673,-0.000131
2873.446876,-0.000124
2873.929079,-0.000126
2874.411282,-0.000247
2874.893485,-0.000172
2875.375688,0.000114
2875.857890,0.000235
2876.340093,0.000107
2876.822296,-0.000003
2877.304499,-0.000030
2877.786702,-0.000034
2878.268905,-0.000018
2878.751108,-0.000068
2879.233311,-0.000080
2879.715513,0.000022
2880.197716,0.000027
2880.679919,-0.000012
2881.162122,0.000006
2881.644325,0.000055
2882.126528,0.000199
2882.608731,0.000123
2883.090933,-0.000055
2883.573136,0.000112
2884.055339,0.000176
2884.537542,0.000063
2885.019745,0.000127
2885.501948,0.000107
2885.984151,0.000022
2886.466353,0.000064
2886.948556,0.000105
2887.430759,0.000067
2887.912962,0.000009
2888.395165,0.000082
2888.877368,0.000221
2889.359571,0.000135
2889.841774,-0.000058
2890.323976,-0.000055
2890.806179,-0.000021
2891.288382,-0.000030
2891.770585,0.000129
2892.252788,0.000303
2892.734991,0.000279
2893.217194,0.000174
2893.699396,0.000191
2894.181599,0.000286
2894.663802,0.000223
2895.146005,0.000046
2895.628208,-0.000001
2896.110411,-0.000000
2896.592614,-0.000069
2897.074817,-0.000055
2897.557019,-0.000030
2898.039222,-0.000023
2898.521425,0.000147
2899.003628,0.000309
2899.485831,0.000264
2899.968034,0.000113
2900.450237,0.000036
2900.932439,0.000041
2901.414642,0.000050
2901.896845,0.000040
2902.379048,-0.000013
2902.861251,0.000052
2903.343454,0.000116
2903.825657,-0.000004
2904.307860,-0.000025
2904.790062,0.000010
2905.272265,-0.000042
2905.754468,-0.000027
2906.236671,0.000019
2906.718874,-0.000004
2907.201077,-0.000047
2907.683280,-0.000019
2908.165482,0.000090
2908.647685,0.000137
2909.129888,0.000023
2909.612091,0.000024
2910.094294,0.000210
2910.576497,0.000213
2911.058700,0.000085
2911.540902,0.000058
2912.023105,0.000099
2912.505308,0.000157
2912.987511,0.000137
2913.469714,-0.000023
2913.951917,-0.000088
2914.434120,0.000060
2914.916323,0.000071
2915.398525,0.000042
2915.880728,0.000230
2916.362931,0.000260
2916.845134,0.000108
2917.327337,0.000081
2917.809540,0.000170
2918.291743,0.000211
2918.773945,0.000142
2919.256148,0.000176
2919.738351,0.000204
2920.220554,0.000057
2920.702757,0.000037
2921.184960,0.000136
2921.667163,0.000183
2922.149366,0.000164
2922.631568,0.000076
2923.113771,0.000139
2923.595974,0.000225
2924.078177,0.000131
2924.560380,0.000114
2925.042583,0.000098
2925.524786,-0.000015
2926.006988,-0.000045
2926.489191,-0.000078
2926.971394,-0.000074
2927.453597,0.000051
2927.935800,0.000153
2928.418003,0.000213
2928.900206,0.000188
2929.382409,-0.000001
2929.864611,-0.000181
2930.346814,-0.000155
2930.829017,-0.000020
2931.311220,0.000001
2931.793423,-0.000022
2932.275626,0.000013
2932.757829,-0.000032
2933.240031,-0.000107
2933.722234,-0.000123
2934.204437,-0.000192
2934.686640,-0.000234
2935.168843,-0.000142
2935.651046,0.000030
2936.133249,0.000151
2936.615452,0.000035
2937.097654,-0.000064
2937.579857,0.000090
2938.062060,0.000111
2938.544263,-0.000062
2939.026466,-0.000119
2939.508669,-0.000068
2939.990872,-0.000010
2940.473074,-0.000025
2940.955277,-0.000077
2941.437480,-0.000050
2941.919683,-0.000047
2942.401886,-0.000110
2942.884089,-0.000088
2943.366292,0.000004
2943.848494,0.000000
2944.330697,-0.000071
2944.812900,-0.000043
2945.295103,-0.000012
2945.777306,-0.000091
2946.259509,-0.000069
2946.741712,0.000009
2947.223915,-0.000064
2947.706117,-0.000105
2948.188320,-0.000055
2948.670523,-0.000034
2949.152726,0.000005
2949.634929,0.000014
2950.117132,-0.000004
2950.599335,-0.000003
2951.081537,-0.000046
2951.563740,-0.000054
2952.045943,-0.000021
2952.528146,-0.000074
2953.010349,-0.000149
2953.492552,-0.000131
2953.974755,-0.000055
2954.456958,-0.000050
2954.939160,-0.000107
2955.421363,-0.000145
2955.903566,-0.000190
2956.385769,-0.000157
2956.867972,-0.000137
2957.350175,-0.000200
2957.832378,-0.000109
2958.314580,0.000015
2958.796783,0.000026
2959.278986,-0.000016
2959.761189,-0.000023
2960.243392,0.000092
2960.725595,0.000072
2961.207798,-0.000068
2961.690001,-0.000070
2962.172203,-0.000052
2962.654406,-0.000081
2963.136609,-0.000082
2963.618812,-0.000055
2964.101015,-0.000084
2964.583218,-0.000105
2965.065421,-0.000047
2965.547623,-0.000024
2966.029826,-0.000020
2966.512029,-0.000016
2966.994232,0.000020
2967.476435,0.000054
2967.958638,-0.000044
2968.440841,-0.000138
2968.923044,-0.000118
2969.405246,-0.000060
2969.887449,-0.000038
2970.369652,-0.000010
2970.851855,0.000105
2971.334058,0.000169
2971.816261,0.000060
2972.298464,-0.000105
2972.780666,-0.000171
2973.262869,-0.000146
2973.745072,-0.000093
2974.227275,-0.000016
2974.709478,-0.000036
2975.191681,-0.000115
2975.673884,-0.000023
2976.156086,0.000126
2976.638289,0.000088
2977.120492,-0.000041
2977.602695,-0.000079
2978.084898,-0.000040
2978.567101,0.000027
2979.049304,0.000019
2979.531507,-0.000064
2980.013709,-0.000016
2980.495912,0.000082
2980.978115,0.000097
2981.460318,0.000072
2981.942521,0.000005
2982.424724,-0.000010
2982.906927,-0.000003
2983.389129,-0.000026
2983.871332,-0.000045
2984.353535,-0.000135
2984.835738,-0.000178
2985.317941,-0.000098
2985.800144,-0.000051
2986.282347,-0.000094
2986.764550,-0.000110
2987.246752,-0.000055
2987.728955,-0.000067
2988.211158,-0.000104
2988.693361,-0.000071
2989.175564,-0.000030
2989.657767,-0.000061
2990.139970,-0.000170
2990.622172,-0.000164
2991.104375,-0.000056
2991.586578,-0.000042
2992.068781,-0.000102
2992.550984,-0.000142
2993.033187,-0.000104
2993.515390,-0.000064
2993.997593,-0.000059
2994.479795,0.000033
2994.961998,0.000080
2995.444201,-0.000005
2995.926404,-0.000042
2996.408607,-0.000069
2996.890810,-0.000086
2997.373013,0.000030
2997.855215,0.000101
2998.337418,0.000115
2998.819621,0.000125
2999.301824,0.000043
2999.784027,-0.000016
3000.266230,-0.000098
3000.748433,-0.000156
3001.230635,-0.000038
3001.712838,-0.000046
3002.195041,-0.000213
3002.677244,-0.000202
3003.159447,-0.000096
3003.641650,-0.000095
3004.123853,-0.000093
3004.606056,-0.000054
3005.088258,-0.000064
3005.570461,-0.000046
3006.052664,-0.000010
3006.534867,-0.000103
3007.017070,-0.000224
3007.499273,-0.000231
3007.981476,-0.000206
3008.463678,-0.000155
3008.945881,-0.000039
3009.428084,0.000014
3009.910287,-0.000008
3010.392490,-0.000031
3010.874693,-0.000028
3011.356896,-0.000014
3011.839099,-0.000073
3012.321301,-0.000095
3012.803504,-0.000001
3013.285707,0.000050
3013.767910,0.000053
3014.250113,-0.000013
3014.732316,-0.000128
3015.214519,-0.000124
3015.696721,-0.000122
3016.178924,-0.000138
3016.661127,-0.000046
3017.143330,-0.000057
3017.625533,-0.000126
3018.107736,-0.000088
3018.589939,-0.000134
3019.072142,-0.000162
3019.554344,-0.000041
3020.036547,0.000033
3020.518750,0.000053
3021.000953,0.000073
3021.483156,0.000067
3021.965359,-0.000005
3022.447562,-0.000096
3022.929764,-0.000072
3023.411967,-0.000053
3023.894170,-0.000032
3024.376373,0.000080
3024.858576,0.000046
3025.340779,-0.000082
3025.822982,-0.000131
3026.305185,-0.000075
3026.787387,0.000094
3027.269590,0.000086
3027.751793,-0.000101
3028.233996,-0.000134
3028.716199,-0.000061
3029.198402,0.000022
3029.680605,0.000089
3030.162807,0.000029
3030.645010,-0.000087
3031.127213,-0.000068
3031.609416,0.000084
3032.091619,0.000140
3032.573822,-0.000022
3033.056025,-0.000172
3033.538227,-0.000099
3034.020430,0.000022
3034.502633,0.000027
3034.984836,0.000008
3035.467039,-0.000026
3035.949242,-0.000071
3036.431445,-0.000088
3036.913648,-0.000135
3037.395850,-0.000103
3037.878053,0.000012
3038.360256,-0.000018
3038.842459,-0.000119
3039.324662,-0.000163
3039.806865,-0.000151
3040.289068,-0.000080
3040.771270,-0.000080
3041.253473,-0.000101
3041.735676,-0.000091
3042.217879,-0.000100
3042.700082,-0.000034
3043.182285,0.000071
3043.664488,0.000131
3044.146691,0.000104
3044.628893,0.000026
3045.111096,-0.000014
3045.593299,-0.000037
3046.075502,0.000028
3046.557705,0.000106
3047.039908,0.000079
3047.522111,-0.000016
3048.004313,-0.000186
3048.486516,-0.000232
3048.968719,-0.000151
3049.450922,-0.000063
3049.933125,0.000075
3050.415328,0.000043
3050.897531,-0.000079
3051.379734,0.000001
3051.861936,0.000121
3052.344139,0.000102
3052.826342,-0.000045
3053.308545,-0.000161
3053.790748,-0.000131
3054.272951,-0.000092
3054.755154,-0.000044
3055.237356,0.000065
3055.719559,0.000090
3056.201762,0.000014
3056.683965,-0.000086
3057.166168,-0.000131
3057.648371,-0.000043
3058.130574,-0.000015
3058.612777,-0.000120
3059.094979,-0.000082
3059.577182,0.000049
3060.059385,0.000009
3060.541588,-0.000069
3061.023791,0.000021
3061.505994,0.000098
3061.988197,0.000060
3062.470399,0.000008
3062.952602,-0.000086
3063.434805,-0.000147
3063.917008,-0.000098
3064.399211,-0.000069
3064.881414,-0.000139
3065.363617,-0.000230
3065.845819,-0.000171
3066.328022,-0.000053
3066.810225,-0.000122
3067.292428,-0.000224
3067.774631,-0.000109
3068.256834,0.000007
3068.739037,0.000001
3069.221240,0.000107
3069.703442,0.000109
3070.185645,-0.000126
3070.667848,-0.000157
3071.150051,0.000008
3071.632254,0.000069
3072.114457,0.000006
3072.596660,-0.000044
3073.078862,0.000029
3073.561065,0.000030
3074.043268,-0.000062
3074.525471,-0.000020
3075.007674,0.000054
3075.489877,0.000069
3075.972080,0.000086
3076.454283,0.000102
3076.936485,0.000177
3077.418688,0.000191
3077.900891,0.000097
3078.383094,0.000105
3078.865297,0.000105
3079.347500,0.000028
3079.829703,0.000014
3080.311905,0.000079
3080.794108,0.000201
3081.276311,0.000181
3081.758514,0.000066
3082.240717,0.000079
3082.722920,0.000041
3083.205123,-0.000050
3083.687326,-0.000059
3084.169528,-0.000051
3084.651731,0.000082
3085.133934,0.000252
3085.616137,0.000241
3086.098340,0.000208
3086.580543,0.000170
3087.062746,0.000043
3087.544948,-0.000011
3088.027151,-0.000039
3088.509354,-0.000041
3088.991557,0.000038
3089.473760,-0.000001
3089.955963,-0.000091
3090.438166,-0.000054
3090.920368,0.000028
3091.402571,0.000044
3091.884774,-0.000011
3092.366977,-0.000052
3092.849180,-0.000080
3093.331383,-0.000132
3093.813586,-0.000154
3094.295789,-0.000113
3094.777991,-0.000068
3095.260194,-0.000066
3095.742397,-0.000012
3096.224600,0.000098
3096.706803,0.000184
3097.189006,0.000127
3097.671209,-0.000122
3098.153411,-0.000200
3098.635614,-0.000091
3099.117817,-0.000055
3099.600020,0.000031
3100.082223,0.000053
3100.564426,-0.000016
3101.046629,0.000062
3101.528832,0.000139
3102.011034,0.000118
3102.493237,0.000095
3102.975440,0.000078
3103.457643,0.000028
3103.939846,-0.000049
3104.422049,-0.000070
3104.904252,-0.000055
3105.386454,-0.000039
3105.868657,0.000040
3106.350860,0.000132
3106.833063,0.000094
3107.315266,0.000001
3107.797469,0.000048
3108.279672,0.000149
3108.761875,0.000115
3109.244077,0.000047
3109.726280,0.000079
3110.208483,0.000049
3110.690686,-0.000080
3111.172889,-0.000070
3111.655092,0.000013
3112.137295,0.000022
3112.619497,0.000081
3113.101700,0.000146
3113.583903,0.000087
3114.066106,-0.000035
3114.548309,-0.000086
3115.030512,-0.000038
3115.512715,-0.000062
3115.994918,-0.000169
3116.477120,-0.000228
3116.959323,-0.000219
3117.441526,-0.000045
3117.923729,0.000129
3118.405932,0.000109
3118.888135,0.000158
3119.370338,0.000220
3119.852540,0.000092
3120.334743,0.000093
3120.816946,0.000197
3121.299149,0.000149
3121.781352,0.000179
3122.263555,0.000256
3122.745758,0.000174
3123.227960,0.000088
3123.710163,0.000040
3124.192366,0.000027
3124.674569,0.000057
3125.156772,0.000072
3125.638975,0.000099
3126.121178,0.000058
3126.603381,0.000021
3127.085583,0.000090
3127.567786,0.000064
3128.049989,-0.000043
3128.532192,-0.000020
3129.014395,0.000059
3129.496598,-0.000048
3129.978801,-0.000205
3130.461003,-0.000093
3130.943206,0.000083
3131.425409,0.000053
3131.907612,-0.000000
3132.389815,0.000090
3132.872018,0.000175
3133.354221,0.000096
3133.836424,-0.000016
3134.318626,-0.000052
3134.800829,-0.000033
3135.283032,0.000067
3135.765235,0.000133
3136.247438,0.000119
3136.729641,0.000158
3137.211844,0.000189
3137.694046,0.000171
3138.176249,0.000178
3138.658452,0.000122
3139.140655,-0.000063
3139.622858,-0.000196
3140.105061,-0.000124
3140.587264,-0.000014
3141.069467,-0.000004
3141.551669,0.000030
3142.033872,0.000095
3142.516075,0.000060
3142.998278,0.000021
3143.480481,0.000098
3143.962684,0.000146
3144.444887,0.000145
3144.927089,0.000144
3145.409292,0.000079
3145.891495,0.000089
3146.373698,0.000161
3146.855901,0.000117
3147.338104,0.000067
3147.820307,0.000090
3148.302510,0.000087
3148.784712,0.000009
3149.266915,-0.000043
3149.749118,0.000038
3150.231321,0.000095
3150.713524,0.000064
3151.195727,0.000015
3151.677930,-0.000052
3152.160132,-0.000013
3152.642335,0.000117
3153.124538,0.000171
3153.606741,0.000155
3154.088944,0.000059
3154.571147,-0.000045
3155.053350,-0.000046
3155.535552,-0.000031
3156.017755,0.000004
3156.499958,0.000017
3156.982161,-0.000032
3157.464364,0.000032
3157.946567,0.000108
3158.428770,0.000089
3158.910973,0.000122
3159.393175,0.000078
3159.875378,-0.000073
3160.357581,-0.000043
3160.839784,0.000171
3161.321987,0.000246
3161.804190,0.000119
3162.286393,0.000059
3162.768595,0.000107
3163.250798,0.000182
3163.733001,0.000182
3164.215204,-0.000015
3164.697407,-0.000134
3165.179610,-0.000003
3165.661813,0.000125
3166.144016,0.000160
3166.626218,0.000221
3167.108421,0.000297
3167.590624,0.000267
3168.072827,0.000232
3168.555030,0.000235
3169.037233,0.000127
3169.519436,0.000042
3170.001638,0.000036
3170.483841,-0.000023
3170.966044,0.000011
3171.448247,0.000129
3171.930450,0.000145
3172.412653,0.000190
3172.894856,0.000225
3173.377059,0.000145
3173.859261,0.000158
3174.341464,0.000138
3174.823667,0.000025
3175.305870,0.000077
3175.788073,0.000173
3176.270276,0.000176
3176.752479,0.000116
3177.234681,0.000049
3177.716884,0.000095
3178.199087,0.000186
3178.681290,0.000264
3179.163493,0.000260
3179.645696,0.000152
3180.127899,0.000087
3180.610102,0.000043
3181.092304,-0.000044
3181.574507,-0.000072
3182.056710,0.000050
3182.538913,0.000186
3183.021116,0.000169
3183.503319,0.000137
3183.985522,0.000127
3184.467724,0.000078
3184.949927,0.000152
3185.432130,0.000305
3185.914333,0.000318
3186.396536,0.000193
3186.878739,0.000081
3187.360942,0.000037
3187.843144,0.000033
3188.325347,0.000104
3188.807550,0.000160
3189.289753,0.000155
3189.771956,0.000187
3190.254159,0.000087
3190.736362,-0.000099
3191.218565,-0.000073
3191.700767,-0.000005
3192.182970,-0.000036
3192.665173,0.000033
3193.147376,0.000124
3193.629579,0.000039
3194.111782,-0.000038
3194.593985,0.000027
3195.076187,0.000065
3195.558390,0.000090
3196.040593,0.000201
3196.522796,0.000291
3197.004999,0.000273
3197.487202,0.000162
3197.969405,0.000038
3198.451608,-0.000032
3198.933810,-0.000048
3199.416013,-0.000011
3199.898216,0.000010
3200.380419,0.000032
3200.862622,0.000057
3201.344825,-0.000028
3201.827028,-0.000027
3202.309230,0.000090
3202.791433,0.000095
3203.273636,0.000140
3203.755839,0.000190
3204.238042,0.000087
3204.720245,0.000003
3205.202448,-0.000007
3205.684651,0.000051
3206.166853,0.000161
3206.649056,0.000247
3207.131259,0.000232
3207.613462,0.000076
3208.095665,0.000029
3208.577868,0.000147
3209.060071,0.000087
3209.542273,-0.000074
3210.024476,-0.000010
3210.506679,0.000166
3210.988882,0.000264
3211.471085,0.000358
3211.953288,0.000404
3212.435491,0.000283
3212.917693,0.000187
3213.399896,0.000214
3213.882099,0.000153
3214.364302,-0.000006
3214.846505,-0.000105
3215.328708,-0.000133
3215.810911,-0.000103
3216.293114,0.000011
3216.775316,0.000042
3217.257519,-0.000016
3217.739722,0.000136
3218.221925,0.000227
3218.704128,0.000063
3219.186331,0.000041
3219.668534,0.000033
3220.150736,-0.000002
3220.632939,0.000171
3221.115142,0.000268
3221.597345,0.000224
3222.079548,0.000160
3222.561751,0.000070
3223.043954,0.000079
3223.526157,0.000146
3224.008359,0.000149
3224.490562,0.000132
3224.972765,0.000090
3225.454968,0.000001
3225.937171,0.000055
3226.419374,0.000204
3226.901577,0.000161
3227.383779,0.000065
3227.865982,0.000007
3228.348185,-0.000024
3228.830388,0.000078
3229.312591,0.000071
3229.794794,-0.000038
3230.276997,0.000018
3230.759200,0.000119
3231.241402,0.000170
3231.723605,0.000161
3232.205808,0.000064
3232.688011,0.000006
3233.170214,0.000022
3233.652417,-0.000005
3234.134620,-0.000048
3234.616822,-0.000003
3235.099025,0.000058
3235.581228,0.000088
3236.063431,0.000163
3236.545634,0.000210
3237.027837,0.000098
3237.510040,-0.000015
3237.992243,0.000057
3238.474445,0.000111
3238.956648,0.000068
3239.438851,0.000239
3239.921054,0.000524
3240.403257,0.000387
3240.885460,0.000029
3241.367663,0.000022
3241.849865,0.000051
3242.332068,-0.000073
3242.814271,-0.000013
3243.296474,0.000030
3243.778677,-0.000029
3244.260880,0.000105
3244.743083,0.000193
3245.225285,0.000018
3245.707488,-0.000084
3246.189691,-0.000052
3246.671894,-0.000025
3247.154097,0.000094
3247.636300,0.000170
3248.118503,0.000079
3248.600706,-0.000048
3249.082908,-0.000117
3249.565111,-0.000065
3250.047314,0.000088
3250.529517,0.000231
3251.011720,0.000255
3251.493923,0.000168
3251.976126,0.000095
3252.458328,0.000143
3252.940531,0.000240
3253.422734,0.000215
3253.904937,0.000144
3254.387140,0.000111
3254.869343,0.000134
3255.351546,0.000246
3255.833749,0.000256
3256.315951,0.000124
3256.798154,0.000050
3257.280357,0.000030
3257.762560,-0.000039
3258.244763,-0.000052
3258.726966,0.000012
3259.209169,-0.000010
3259.691371,0.000022
3260.173574,0.000122
3260.655777,0.000056
3261.137980,0.000059
3261.620183,0.000208
3262.102386,0.000217
3262.584589,0.000161
3263.066792,0.000100
3263.548994,-0.000012
3264.031197,0.000011
3264.513400,0.000148
3264.995603,0.000151
3265.477806,0.000035
3265.960009,-0.000056
3266.442212,-0.000104
3266.924414,-0.000047
3267.406617,0.000058
3267.888820,0.000071
3268.371023,0.000085
3268.853226,0.000067
3269.335429,0.000011
3269.817632,0.000131
3270.299835,0.000247
3270.782037,0.000143
3271.264240,0.000049
3271.746443,0.000051
3272.228646,0.000013
3272.710849,0.000060
3273.193052,0.000189
3273.675255,0.000163
3274.157457,0.000193
3274.639660,0.000275
3275.121863,0.000131
3275.604066,0.000076
3276.086269,0.000176
3276.568472,0.000165
3277.050675,0.000194
3277.532877,0.000260
3278.015080,0.000213
3278.497283,0.000093
3278.979486,-0.000020
3279.461689,0.000041
3279.943892,0.000156
3280.426095,0.000069
3280.908298,-0.000015
3281.390500,0.000050
3281.872703,0.000035
3282.354906,-0.000090
3282.837109,-0.000146
3283.319312,-0.000106
3283.801515,-0.000032
3284.283718,0.000057
3284.765920,0.000112
3285.248123,0.000116
3285.730326,0.000110
3286.212529,0.000089
3286.694732,0.000032
3287.176935,-0.000011
3287.659138,0.000031
3288.141341,0.000025
3288.623543,-0.000077
3289.105746,0.000012
3289.587949,0.000181
3290.070152,0.000147
3290.552355,0.000081
3291.034558,0.000030
3291.516761,-0.000005
3291.998963,0.000058
3292.481166,0.000038
3292.963369,-0.000014
3293.445572,0.000027
3293.927775,0.000008
3294.409978,-0.000035
3294.892181,-0.000048
3295.374384,-0.000153
3295.856586,-0.000223
3296.338789,-0.000137
3296.820992,-0.000095
3297.303195,-0.000135
3297.785398,-0.000095
3298.267601,0.000003
3298.749804,0.000049
3299.232006,0.000103
3299.714209,0.000097
3300.196412,-0.000098
3300.678615,-0.000091
3301.160818,0.000178
3301.643021,0.000173
3302.125224,0.000008
3302.607426,-0.000056
3303.089629,-0.000102
3303.571832,-0.000080
3304.054035,-0.000018
3304.536238,0.000030
3305.018441,0.000057
3305.500644,0.000136
3305.982847,0.000258
3306.465049,0.000128
3306.947252,-0.000042
3307.429455,0.000086
3307.911658,0.000167
3308.393861,0.000041
3308.876064,-0.000082
3309.358267,-0.000141
3309.840469,-0.000084
3310.322672,-0.000004
3310.804875,-0.000043
3311.287078,-0.000029
3311.769281,0.000083
3312.251484,0.000057
3312.733687,-0.000079
3313.215890,-0.000082
3313.698092,0.000001
3314.180295,0.000012
3314.662498,0.000011
3315.144701,-0.000024
3315.626904,-0.000122
3316.109107,-0.000165
3316.591310,-0.000102
3317.073512,0.000061
3317.555715,0.000067
3318.037918,-0.000134
3318.520121,-0.000191
3319.002324,-0.000167
3319.484527,-0.000211
3319.966730,-0.000258
3320.448933,-0.000221
3320.931135,-0.000058
3321.413338,-0.000067
3321.895541,-0.000203
3322.377744,-0.000127
3322.859947,-0.000022
3323.342150,-0.000020
3323.824353,-0.000111
3324.306555,-0.000298
3324.788758,-0.000203
3325.270961,0.000001
3325.753164,-0.000160
3326.235367,-0.000197
3326.717570,0.000046
3327.199773,0.000135
3327.681976,0.000157
3328.164178,0.000101
3328.646381,-0.000025
3329.128584,-0.000006
3329.610787,0.000067
3330.092990,0.000076
3330.575193,0.000036
3331.057396,0.000005
3331.539598,-0.000039
3332.021801,-0.000065
3332.504004,0.000002
3332.986207,0.000020
3333.468410,-0.000009
3333.950613,0.000038
3334.432816,-0.000004
3334.915018,-0.000177
3335.397221,-0.000179
3335.879424,-0.000022
3336.361627,0.000109
3336.843830,0.000181
3337.326033,0.000041
3337.808236,-0.000170
3338.290439,-0.000241
3338.772641,-0.000252
3339.254844,-0.000128
3339.737047,0.000078
3340.219250,0.000114
3340.701453,-0.000016
3341.183656,-0.000065
3341.665859,0.000036
3342.148061,0.000103
3342.630264,0.000048
3343.112467,-0.000056
3343.594670,-0.000026
3344.076873,0.000041
3344.559076,-0.000044
3345.041279,0.000000
3345.523482,0.000104
3346.005684,-0.000027
3346.487887,-0.000048
3346.970090,0.000098
3347.452293,0.000056
3347.934496,-0.000037
3348.416699,-0.000033
3348.898902,-0.000004
3349.381104,0.000181
3349.863307,0.000406
3350.345510,0.000320
3350.827713,0.000086
3351.309916,0.000112
3351.792119,0.000214
3352.274322,0.000021
3352.756525,-0.000071
3353.238727,0.000126
3353.720930,0.000051
3354.203133,-0.000030
3354.685336,0.000150
3355.167539,0.000073
3355.649742,0.000009
3356.131945,0.000089
3356.614147,-0.000041
3357.096350,-0.000092
3357.578553,0.000007
3358.060756,0.000131
3358.542959,0.000187
3359.025162,0.000038
3359.507365,0.000023
3359.989568,0.000141
3360.471770,0.000051
3360.953973,-0.000077
3361.436176,-0.000103
3361.918379,-0.000167
3362.400582,-0.000351
3362.882785,-0.000491
3363.364988,-0.000356
3363.847190,-0.000158
3364.329393,-0.000219
3364.811596,-0.000319
3365.293799,-0.000160
3365.776002,0.000061
3366.258205,0.000079
3366.740408,0.000043
3367.222610,0.000053
3367.704813,-0.000035
3368.187016,-0.000104
3368.669219,-0.000011
3369.151422,0.000203
3369.633625,0.000327
3370.115828,0.000137
3370.598031,-0.000046
3371.080233,0.000016
3371.562436,0.000071
3372.044639,0.000008
3372.526842,-0.000070
3373.009045,-0.000056
3373.491248,0.000040
3373.973451,0.000193
3374.455653,0.000212
3374.937856,-0.000049
3375.420059,-0.000189
3375.902262,-0.000064
3376.384465,0.000022
3376.866668,0.000073
3377.348871,0.000141
3377.831074,0.000165
3378.313276,0.000122
3378.795479,-0.000047
3379.277682,-0.000203
3379.759885,-0.000172
3380.242088,-0.000119
3380.724291,-0.000067
3381.206494,0.000091
3381.688696,0.000122
3382.170899,0.000014
3382.653102,0.000016
3383.135305,-0.000065
3383.617508,-0.000235
3384.099711,-0.000177
3384.581914,-0.000124
3385.064117,-0.000200
3385.546319,-0.000123
3386.028522,-0.000034
3386.510725,-0.000099
3386.992928,-0.000086
3387.475131,0.000098
3387.957334,0.000161
3388.439537,-0.000072
3388.921739,-0.000294
3389.403942,-0.000251
3389.886145,-0.000198
3390.368348,-0.000287
3390.850551,-0.000283
3391.332754,-0.000133
3391.814957,0.000048
3392.297160,0.000178
3392.779362,0.000227
3393.261565,0.000220
3393.743768,0.000221
3394.225971,0.000275
3394.708174,0.000183
3395.190377,0.000088
3395.672580,0.000210
3396.154782,0.000270
3396.636985,0.000231
3397.119188,0.000019
3397.601391,-0.000193
3398.083594,-0.000052
3398.565797,-0.000041
3399.048000,-0.000224
3399.530202,-0.000194
3400.012405,-0.000136
3400.494608,-0.000139
3400.976811,-0.000028
3401.459014,0.000122
3401.941217,0.000093
3402.423420,0.000048
3402.905623,0.000144
3403.387825,0.000158
3403.870028,0.000077
3404.352231,-0.000086
3404.834434,-0.000184
3405.316637,0.000026
3405.798840,0.000162
3406.281043,0.000095
3406.763245,0.000103
3407.245448,0.000037
3407.727651,-0.000040
3408.209854,0.000034
3408.692057,0.000072
3409.174260,0.000077
3409.656463,0.000106
3410.138666,0.000084
3410.620868,0.000132
3411.103071,0.000186
3411.585274,0.000093
3412.067477,0.000108
3412.549680,0.000132
3413.031883,-0.000048
3413.514086,-0.000056
3413.996288,0.000093
3414.478491,0.000094
3414.960694,0.000012
3415.442897,-0.000014
3415.925100,0.000053
3416.407303,0.000079
3416.889506,0.000131
3417.371709,0.000348
3417.853911,0.000354
3418.336114,0.000090
3418.818317,0.000026
3419.300520,0.000162
3419.782723,0.000289
3420.264926,0.000336
3420.747129,0.000200
3421.229331,0.000004
3421.711534,-0.000141
3422.193737,-0.000187
3422.675940,0.000021
3423.158143,0.000247
3423.640346,0.000143
3424.122549,-0.000062
3424.604751,-0.000153
3425.086954,-0.000173
3425.569157,0.000045
3426.051360,0.000271
3426.533563,0.000242
3427.015766,0.000202
3427.497969,0.000012
3427.980172,-0.000221
3428.462374,-0.000256
3428.944577,-0.000318
3429.426780,-0.000192
3429.908983,0.000077
3430.391186,0.000117
3430.873389,0.000009
3431.355592,-0.000112
3431.837794,-0.000065
3432.319997,0.000026
3432.802200,0.000054
3433.284403,0.000208
3433.766606,0.000148
3434.248809,-0.000136
3434.731012,-0.000126
3435.213215,0.000063
3435.695417,0.000214
3436.177620,0.000332
3436.659823,0.000267
3437.142026,0.000015
3437.624229,-0.000160
3438.106432,-0.000026
3438.588635,0.000232
3439.070837,0.000284
3439.553040,0.000151
3440.035243,0.000030
3440.517446,-0.000024
3440.999649,-0.000130
3441.481852,-0.000143
3441.964055,0.000133
3442.446258,0.000322
3442.928460,0.000108
3443.410663,-0.000103
3443.892866,0.000033
3444.375069,0.000219
3444.857272,0.000273
3445.339475,0.000305
3445.821678,0.000222
3446.303880,0.000096
3446.786083,0.000135
3447.268286,0.000241
3447.750489,0.000248
3448.232692,0.000141
3448.714895,0.000063
3449.197098,0.000099
3449.679301,0.000112
3450.161503,0.000125
3450.643706,0.000176
3451.125909,0.000136
3451.608112,0.000052
3452.090315,-0.000145
3452.572518,-0.000252
3453.054721,-0.000010
3453.536923,0.000048
3454.019126,-0.000064
3454.501329,0.000070
3454.983532,0.000029
3455.465735,-0.000150
3455.947938,0.000027
3456.430141,0.000083
3456.912343,-0.000177
3457.394546,-0.000054
3457.876749,0.000127
3458.358952,0.000082
3458.841155,0.000292
3459.323358,0.000378
3459.805561,0.000297
3460.287764,0.000354
3460.769966,0.000354
3461.252169,0.000375
3461.734372,0.000365
3462.216575,0.000193
3462.698778,0.000017
3463.180981,0.000080
3463.663184,0.000325
3464.145386,0.000366
3464.627589,0.000127
3465.109792,-0.000134
3465.591995,-0.000041
3466.074198,0.000207
3466.556401,0.000080
3467.038604,-0.000140
3467.520807,-0.000073
3468.003009,0.000043
3468.485212,0.000028
3468.967415,0.000032
3469.449618,0.000061
3469.931821,0.000055
3470.414024,0.000037
3470.896227,-0.000071
3471.378429,-0.000133
3471.860632,-0.000044
3472.342835,0.000004
3472.825038,-0.000047
3473.307241,-0.000021
3473.789444,0.000065
3474.271647,0.000081
3474.753850,0.000095
3475.236052,0.000056
3475.718255,0.000140
3476.200458,0.000394
3476.682661,0.000328
3477.164864,0.000087
3477.647067,0.000057
3478.129270,-0.000023
3478.611472,-0.000308
3479.093675,-0.000310
3479.575878,0.000049
3480.058081,0.000105
3480.540284,-0.000062
3481.022487,-0.000062
3481.504690,-0.000020
3481.986893,0.000098
3482.469095,0.000157
3482.951298,0.000091
3483.433501,0.000186
3483.915704,0.000269
3484.397907,0.000177
3484.880110,0.000227
3485.362313,0.000412
3485.844515,0.000366
3486.326718,0.000229
3486.808921,0.000282
3487.291124,0.000290
3487.773327,0.000245
3488.255530,0.000223
3488.737733,0.000088
3489.219935,0.000125
3489.702138,0.000251
3490.184341,0.000160
3490.666544,0.000117
3491.148747,0.000164
3491.630950,0.000177
3492.113153,0.000270
3492.595356,0.000346
3493.077558,0.000090
3493.559761,-0.000185
3494.041964,-0.000011
3494.524167,0.000095
3495.006370,0.000021
3495.488573,0.000129
3495.970776,0.000258
3496.452978,0.000360
3496.935181,0.000243
3497.417384,0.000056
3497.899587,0.000194
3498.381790,0.000244
3498.863993,0.000172
3499.346196,0.000312
3499.828399,0.000349
3500.310601,0.000169
3500.792804,0.000052
3501.275007,0.000012
3501.757210,0.000040
3502.239413,0.000107
3502.721616,0.000169
3503.203819,0.000285
3503.686021,0.000155
3504.168224,-0.000129
3504.650427,-0.000071
3505.132630,0.000054
3505.614833,0.000122
3506.097036,0.000319
3506.579239,0.000262
3507.061442,-0.000018
3507.543644,0.000020
3508.025847,0.000180
3508.508050,0.000176
3508.990253,0.000223
3509.472456,0.000162
3509.954659,-0.000057
3510.436862,-0.000097
3510.919064,0.000006
3511.401267,0.000144
3511.883470,0.000193
3512.365673,0.000115
3512.847876,0.000113
3513.330079,0.000149
3513.812282,0.000059
3514.294484,0.000007
3514.776687,0.000162
3515.258890,0.000301
3515.741093,0.000307
3516.223296,0.000194
3516.705499,0.000067
3517.187702,0.000141
3517.669905,0.000105
3518.152107,-0.000022
3518.634310,0.000043
3519.116513,0.000008
3519.598716,0.000048
3520.080919,0.000261
3520.563122,0.000128
3521.045325,-0.000125
3521.527527,-0.000029
3522.009730,0.000078
3522.491933,-0.000072
3522.974136,-0.000190
3523.456339,-0.000195
3523.938542,-0.000209
3524.420745,-0.000309
3524.902948,-0.000333
3525.385150,-0.000046
3525.867353,0.000155
3526.349556,0.000148
3526.831759,0.000246
3527.313962,0.000163
3527.796165,-0.000092
3528.278368,-0.000036
3528.760570,0.000182
3529.242773,0.000179
3529.724976,0.000062
3530.207179,-0.000013
3530.689382,-0.000101
3531.171585,-0.000015
3531.653788,0.000143
3532.135991,0.000032
3532.618193,0.000013
3533.100396,0.000145
3533.582599,0.000136
3534.064802,0.000254
3534.547005,0.000312
3535.029208,0.000163
3535.511411,0.000162
3535.993613,0.000140
3536.475816,0.000106
3536.958019,0.000171
3537.440222,0.000167
3537.922425,0.000240
3538.404628,0.000293
3538.886831,0.000224
3539.369034,0.000213
3539.851236,0.000213
3540.333439,0.000313
3540.815642,0.000460
3541.297845,0.000393
3541.780048,0.000269
3542.262251,0.000182
3542.744454,0.000052
3543.226656,-0.000017
3543.708859,0.000008
3544.191062,0.000077
3544.673265,0.000032
3545.155468,-0.000165
3545.637671,-0.000127
3546.119874,0.000120
3546.602076,0.000001
3547.084279,-0.000198
3547.566482,0.000061
3548.048685,0.000241
3548.530888,0.000091
3549.013091,-0.000029
3549.495294,-0.000088
3549.977497,0.000051
3550.459699,0.000303
3550.941902,0.000401
3551.424105,0.000374
3551.906308,0.000144
3552.388511,-0.000168
3552.870714,-0.000274
3553.352917,-0.000029
3553.835119,0.000357
3554.317322,0.000354
3554.799525,0.000143
3555.281728,0.000211
3555.763931,0.000260
3556.246134,0.000112
3556.728337,0.000194
3557.210540,0.000368
3557.692742,0.000233
3558.174945,0.000192
3558.657148,0.000397
3559.139351,0.000424
3559.621554,0.000335
3560.103757,0.000197
3560.585960,-0.000105
3561.068162,-0.000208
3561.550365,0.000021
3562.032568,0.000113
3562.514771,-0.000040
3562.996974,-0.000151
3563.479177,-0.000125
3563.961380,-0.000010
3564.443583,0.000033
3564.925785,-0.000092
3565.407988,-0.000178
3565.890191,-0.000190
3566.372394,-0.000234
3566.854597,-0.000134
3567.336800,0.000025
3567.819003,-0.000022
3568.301205,-0.000204
3568.783408,-0.000222
3569.265611,0.000037
3569.747814,0.000118
3570.230017,0.000092
3570.712220,0.000321
3571.194423,0.000319
3571.676626,0.000161
3572.158828,0.000312
3572.641031,0.000335
3573.123234,0.000083
3573.605437,-0.000056
3574.087640,-0.000049
3574.569843,-0.000003
3575.052046,0.000051
3575.534248,0.000088
3576.016451,0.000193
3576.498654,0.000265
3576.980857,0.000108
3577.463060,0.000026
3577.945263,0.000154
3578.427466,0.000173
3578.909668,0.000231
3579.391871,0.000393
3579.874074,0.000264
3580.356277,0.000020
3580.838480,0.000011
3581.320683,0.000035
3581.802886,-0.000012
3582.285089,-0.000008
3582.767291,-0.000041
3583.249494,-0.000212
3583.731697,-0.000242
3584.213900,-0.000009
3584.696103,0.000086
3585.178306,0.000022
3585.660509,0.000114
3586.142711,0.000210
3586.624914,0.000136
3587.107117,0.000028
3587.589320,-0.000112
3588.071523,-0.000257
3588.553726,-0.000238
3589.035929,-0.000120
3589.518132,-0.000014
3590.000334,0.000087
3590.482537,0.000166
3590.964740,0.000251
3591.446943,0.000204
3591.929146,-0.000038
3592.411349,-0.000147
3592.893552,-0.000063
3593.375754,-0.000060
3593.857957,-0.000098
3594.340160,-0.000039
3594.822363,-0.000056
3595.304566,-0.000198
3595.786769,-0.000176
3596.268972,-0.000007
3596.751175,0.000109
3597.233377,0.000207
3597.715580,0.000162
3598.197783,0.000005
3598.679986,-0.000031
3599.162189,0.000011
3599.644392,0.000041
3600.126595,-0.000036
3600.608797,-0.000201
3601.091000,-0.000145
3601.573203,0.000207
3602.055406,0.000428
3602.537609,0.000391
3603.019812,0.000341
3603.502015,0.000249
3603.984217,0.000250
3604.466420,0.000257
3604.948623,0.000182
3605.430826,0.000448
3605.913029,0.000600
3606.395232,0.000365
3606.877435,0.000232
3607.359638,0.000076
3607.841840,-0.000070
3608.324043,-0.000059
3608.806246,0.000028
3609.288449,0.000129
3609.770652,0.000057
3610.252855,0.000075
3610.735058,0.000284
3611.217260,0.000265
3611.699463,0.000020
3612.181666,-0.000136
3612.663869,-0.000130
3613.146072,-0.000115
3613.628275,-0.000142
3614.110478,-0.000055
3614.592681,0.000002
3615.074883,-0.000081
3615.557086,0.000039
3616.039289,0.000209
3616.521492,0.000078
3617.003695,-0.000054
3617.485898,-0.000006
3617.968101,0.000017
3618.450303,-0.000048
3618.932506,-0.000098
3619.414709,-0.000200
3619.896912,-0.000281
3620.379115,-0.000112
3620.861318,0.000090
3621.343521,0.000199
3621.825724,0.000319
3622.307926,0.000377
3622.790129,0.000309
3623.272332,0.000212
3623.754535,0.000235
3624.236738,0.000276
3624.718941,0.000234
3625.201144,0.000193
3625.683346,0.000052
3626.165549,-0.000194
3626.647752,-0.000221
3627.129955,-0.000002
3627.612158,0.000000
3628.094361,-0.000289
3628.576564,-0.000470
3629.058767,-0.000443
3629.540969,-0.000443
3630.023172,-0.000452
3630.505375,-0.000176
3630.987578,0.000187
3631.469781,0.000207
3631.951984,0.000130
3632.434187,0.000191
3632.916389,0.000106
3633.398592,0.000031
3633.880795,0.000146
3634.362998,0.000222
3634.845201,0.000317
3635.327404,0.000389
3635.809607,0.000282
3636.291809,0.000255
3636.774012,0.000353
3637.256215,0.000330
3637.738418,0.000268
3638.220621,0.000246
3638.702824,0.000285
3639.185027,0.000440
3639.667230,0.000452
3640.149432,0.000269
3640.631635,0.000205
3641.113838,0.000262
3641.596041,0.000186
3642.078244,0.000086
3642.560447,0.000231
3643.042650,0.000311
3643.524852,0.000096
3644.007055,-0.000088
3644.489258,-0.000120
3644.971461,-0.000018
3645.453664,0.000142
3645.935867,0.000111
3646.418070,-0.000040
3646.900273,-0.000124
3647.382475,-0.000274
3647.864678,-0.000394
3648.346881,-0.000274
3648.829084,-0.000257
3649.311287,-0.000423
3649.793490,-0.000417
3650.275693,-0.000261
3650.757895,-0.000181
3651.240098,-0.000206
3651.722301,-0.000195
3652.204504,0.000000
3652.686707,0.000177
3653.168910,0.000152
3653.651113,0.000129
3654.133316,0.000218
3654.615518,0.000243
3655.097721,0.000216
3655.579924,0.000138
3656.062127,-0.000074
3656.544330,-0.000266
3657.026533,-0.000258
3657.508736,0.000016
3657.990938,0.000319
3658.473141,0.000330
3658.955344,0.000234
3659.437547,0.000280
3659.919750,0.000316
3660.401953,0.000308
3660.884156,0.000267
3661.366359,0.000200
3661.848561,0.000288
3662.330764,0.000440
3662.812967,0.000417
3663.295170,0.000349
3663.777373,0.000397
3664.259576,0.000435
3664.741779,0.000302
3665.223981,0.000080
3665.706184,0.000054
3666.188387,0.000216
3666.670590,0.000198
3667.152793,0.000056
3667.634996,0.000056
3668.117199,0.000002
3668.599401,-0.000194
3669.081604,-0.000370
3669.563807,-0.000354
3670.046010,-0.000075
3670.528213,0.000057
3671.010416,-0.000186
3671.492619,-0.000266
3671.974822,-0.000013
3672.457024,0.000110
3672.939227,0.000086
3673.421430,0.000075
3673.903633,-0.000008
3674.385836,-0.000169
3674.868039,-0.000378
3675.350242,-0.000580
3675.832444,-0.000583
3676.314647,-0.000476
3676.796850,-0.000271
3677.279053,0.000033
3677.761256,0.000148
3678.243459,0.000041
3678.725662,0.000070
3679.207865,0.000236
3679.690067,0.000202
3680.172270,0.000159
3680.654473,0.000273
3681.136676,0.000295
3681.618879,0.000281
3682.101082,0.000360
3682.583285,0.000476
3683.065487,0.000521
3683.547690,0.000430
3684.029893,0.000336
3684.512096,0.000381
3684.994299,0.000422
3685.476502,0.000248
3685.958705,0.000125
3686.440908,0.000190
3686.923110,0.000180
3687.405313,0.000097
3687.887516,-0.000123
3688.369719,-0.000445
3688.851922,-0.000598
3689.334125,-0.000394
3689.816328,0.000065
3690.298530,0.000189
3690.780733,-0.000008
3691.262936,-0.000015
3691.745139,-0.000057
3692.227342,-0.000030
3692.709545,0.000210
3693.191748,0.000261
3693.673951,0.000269
3694.156153,0.000348
3694.638356,0.000388
3695.120559,0.000524
3695.602762,0.000631
3696.084965,0.000467
3696.567168,0.000243
3697.049371,0.000308
3697.531573,0.000401
3698.013776,0.000243
3698.495979,0.000141
3698.978182,0.000182
3699.460385,0.000179
3699.942588,0.000165
3700.424791,0.000264
3700.906993,0.000343
3701.389196,0.000215
3701.871399,0.000063
3702.353602,0.000021
3702.835805,0.000123
3703.318008,0.000264
3703.800211,0.000315
3704.282414,0.000380
3704.764616,0.000353
3705.246819,0.000340
3705.729022,0.000427
3706.211225,0.000319
3706.693428,0.000265
3707.175631,0.000340
3707.657834,0.000268
3708.140036,0.000171
3708.622239,0.000122
3709.104442,-0.000014
3709.586645,-0.000327
3710.068848,-0.000357
3710.551051,-0.000004
3711.033254,0.000081
3711.515457,0.000053
3711.997659,0.000076
3712.479862,-0.000140
3712.962065,-0.000227
3713.444268,0.000062
3713.926471,0.000296
3714.408674,0.000289
3714.890877,0.000267
3715.373079,0.000337
3715.855282,0.000380
3716.337485,0.000458
3716.819688,0.000517
3717.301891,0.000465
3717.784094,0.000440
3718.266297,0.000442
3718.748500,0.000342
3719.230702,0.000224
3719.712905,0.000295
3720.195108,0.000397
3720.677311,0.000408
3721.159514,0.000460
3721.641717,0.000397
3722.123920,0.000191
3722.606122,0.000041
3723.088325,0.000014
3723.570528,0.000192
3724.052731,0.000438
3724.534934,0.000533
3725.017137,0.000427
3725.499340,0.000134
3725.981542,-0.000060
3726.463745,0.000009
3726.945948,0.000008
3727.428151,0.000029
3727.910354,0.000231
3728.392557,0.000148
3728.874760,-0.000043
3729.356963,0.000050
3729.839165,0.000178
3730.321368,0.000264
3730.803571,0.000198
3731.285774,0.000048
3731.767977,0.000035
3732.250180,-0.000121
3732.732383,-0.000228
3733.214585,0.000072
3733.696788,0.000255
3734.178991,0.000068
3734.661194,-0.000159
3735.143397,-0.000208
3735.625600,-0.000129
3736.107803,0.000029
3736.590006,0.000070
3737.072208,0.000027
3737.554411,0.000110
3738.036614,0.000151
3738.518817,0.000131
3739.001020,0.000209
3739.483223,0.000375
3739.965426,0.000489
3740.447628,0.000497
3740.929831,0.000494
3741.412034,0.000404
3741.894237,0.000286
3742.376440,0.000291
3742.858643,0.000150
3743.340846,-0.000101
3743.823049,-0.000209
3744.305251,-0.000329
3744.787454,-0.000579
3745.269657,-0.000664
3745.751860,-0.000171
3746.234063,0.000502
3746.716266,0.000657
3747.198469,0.000378
3747.680671,0.000274
3748.162874,0.000294
3748.645077,0.000265
3749.127280,0.000219
3749.609483,-0.000127
3750.091686,-0.000428
3750.573889,-0.000098
3751.056092,0.000248
3751.538294,0.000272
3752.020497,0.000101
3752.502700,-0.000146
3752.984903,-0.000127
3753.467106,0.000302
3753.949309,0.000651
3754.431512,0.000641
3754.913714,0.000482
3755.395917,0.000382
3755.878120,0.000451
3756.360323,0.000574
3756.842526,0.000397
3757.324729,0.000197
3757.806932,0.000210
3758.289134,0.000185
3758.771337,0.000223
3759.253540,0.000265
3759.735743,0.000223
3760.217946,0.000276
3760.700149,0.000373
3761.182352,0.000517
3761.664555,0.000676
3762.146757,0.000715
3762.628960,0.000651
3763.111163,0.000517
3763.593366,0.000423
3764.075569,0.000504
3764.557772,0.000566
3765.039975,0.000392
3765.522177,0.000290
3766.004380,0.000393
3766.486583,0.000398
3766.968786,0.000409
3767.450989,0.000469
3767.933192,0.000491
3768.415395,0.000573
3768.897598,0.000573
3769.379800,0.000441
3769.862003,0.000195
3770.344206,-0.000051
3770.826409,0.000072
3771.308612,0.000366
3771.790815,0.000538
3772.273018,0.000591
3772.755220,0.000573
3773.237423,0.000548
3773.719626,0.000403
3774.201829,0.000274
3774.684032,0.000407
3775.166235,0.000564
3775.648438,0.000613
3776.130641,0.000666
3776.612843,0.000578
3777.095046,0.000369
3777.577249,0.000342
3778.059452,0.000371
3778.541655,0.000304
3779.023858,0.000271
3779.506061,0.000106
3779.988263,0.000035
3780.470466,0.000388
3780.952669,0.000596
3781.434872,0.000482
3781.917075,0.000416
3782.399278,0.000447
3782.881481,0.000518
3783.363684,0.000548
3783.845886,0.000442
3784.328089,0.000310
3784.810292,0.000271
3785.292495,0.000284
3785.774698,0.000303
3786.256901,0.000335
3786.739104,0.000413
3787.221306,0.000482
3787.703509,0.000354
3788.185712,0.000273
3788.667915,0.000534
3789.150118,0.000669
3789.632321,0.000522
3790.114524,0.000461
3790.596726,0.000455
3791.078929,0.000479
3791.561132,0.000533
3792.043335,0.000521
3792.525538,0.000557
3793.007741,0.000651
3793.489944,0.000596
3793.972147,0.000393
3794.454349,0.000359
3794.936552,0.000441
3795.418755,0.000379
3795.900958,0.000338
3796.383161,0.000318
3796.865364,0.000209
3797.347567,0.000172
3797.829769,0.000218
3798.311972,0.000140
3798.794175,0.000031
3799.276378,0.000178
3799.758581,0.000263
3800.240784,0.000123
3800.722987,0.000113
3801.205190,0.000082
3801.687392,-0.000213
3802.169595,-0.000379
3802.651798,-0.000139
3803.134001,0.000047
3803.616204,0.000119
3804.098407,0.000274
3804.580610,0.000329
3805.062812,0.000311
3805.545015,0.000198
3806.027218,0.000054
3806.509421,0.000118
3806.991624,0.000004
3807.473827,-0.000198
3807.956030,0.000025
3808.438233,0.000267
3808.920435,0.000359
3809.402638,0.000492
3809.884841,0.000501
3810.367044,0.000291
3810.849247,0.000215
3811.331450,0.000417
3811.813653,0.000574
3812.295855,0.000503
3812.778058,0.000392
3813.260261,0.000354
3813.742464,0.000288
3814.224667,0.000266
3814.706870,0.000262
3815.189073,0.000175
3815.671275,0.000040
3816.153478,-0.000254
3816.635681,-0.000405
3817.117884,-0.000096
3817.600087,0.000149
3818.082290,0.000186
3818.564493,0.000146
3819.046696,0.000073
3819.528898,0.000111
3820.011101,0.000227
3820.493304,0.000137
3820.975507,-0.000222
3821.457710,-0.000513
3821.939913,-0.000436
3822.422116,-0.000131
3822.904318,0.000090
3823.386521,0.000107
3823.868724,0.000010
3824.350927,0.000046
3824.833130,0.000209
3825.315333,0.000220
3825.797536,0.000234
3826.279739,0.000352
3826.761941,0.000297
3827.244144,0.000095
3827.726347,0.000031
3828.208550,0.000199
3828.690753,0.000316
3829.172956,0.000246
3829.655159,0.000276
3830.137361,0.000296
3830.619564,0.000146
3831.101767,0.000140
3831.583970,0.000187
3832.066173,-0.000005
3832.548376,-0.000206
3833.030579,-0.000169
3833.512782,0.000008
3833.994984,0.000107
3834.477187,0.000031
3834.959390,-0.000111
3835.441593,-0.000252
3835.923796,-0.000272
3836.405999,-0.000099
3836.888202,0.000099
3837.370404,0.000123
3837.852607,-0.000093
3838.334810,-0.000371
3838.817013,-0.000384
3839.299216,-0.000200
3839.781419,-0.000140
3840.263622,-0.000199
3840.745825,-0.000117
3841.228027,-0.000066
3841.710230,-0.000143
3842.192433,0.000040
3842.674636,0.000317
3843.156839,0.000310
3843.639042,0.000187
3844.121245,0.000216
3844.603447,0.000377
3845.085650,0.000401
3845.567853,0.000265
3846.050056,0.000235
3846.532259,0.000305
3847.014462,0.000334
3847.496665,0.000276
3847.978867,0.000187
3848.461070,0.000214
3848.943273,0.000195
3849.425476,0.000031
3849.907679,0.000010
3850.389882,0.000050
3850.872085,-0.000024
3851.354288,-0.000020
3851.836490,-0.000077
3852.318693,-0.000381
3852.800896,-0.000506
3853.283099,-0.000336
3853.765302,-0.000395
3854.247505,-0.000854
3854.729708,-0.001244
3855.211910,-0.000917
3855.694113,-0.000370
3856.176316,-0.000161
3856.658519,-0.000125
3857.140722,-0.000086
3857.622925,0.000001
3858.105128,0.000262
3858.587331,0.000420
3859.069533,0.000404
3859.551736,0.000390
3860.033939,0.000304
3860.516142,0.000204
3860.998345,0.000041
3861.480548,-0.000082
3861.962751,-0.000015
3862.444953,-0.000006
3862.927156,0.000010
3863.409359,0.000019
3863.891562,-0.000079
3864.373765,-0.000117
3864.855968,-0.000233
3865.338171,-0.000425
3865.820374,-0.000404
3866.302576,-0.000237
3866.784779,-0.000095
3867.266982,0.000051
3867.749185,0.000054
3868.231388,-0.000174
3868.713591,-0.000227
3869.195794,-0.000160
3869.677996,-0.000346
3870.160199,-0.000404
3870.642402,-0.000275
3871.124605,-0.000213
3871.606808,0.000000
3872.089011,0.000132
3872.571214,0.000045
3873.053417,0.000005
3873.535619,-0.000052
3874.017822,-0.000132
3874.500025,-0.000203
3874.982228,-0.000144
3875.464431,0.000116
3875.946634,0.000198
3876.428837,0.000132
3876.911039,0.000164
3877.393242,0.000221
3877.875445,0.000200
3878.357648,0.000071
3878.839851,0.000048
3879.322054,0.000211
3879.804257,0.000150
3880.286459,-0.000166
3880.768662,-0.000240
3881.250865,-0.000140
3881.733068,-0.000070
3882.215271,0.000151
3882.697474,0.000268
3883.179677,0.000162
3883.661880,0.000030
3884.144082,-0.000095
3884.626285,-0.000086
3885.108488,-0.000061
3885.590691,-0.000145
3886.072894,-0.000217
3886.555097,-0.000139
3887.037300,0.000151
3887.519502,0.000383
3888.001705,0.000485
3888.483908,0.000425
3888.966111,0.000166
3889.448314,0.000112
3889.930517,0.000135
3890.412720,-0.000063
3890.894923,-0.000113
3891.377125,-0.000020
3891.859328,-0.000019
3892.341531,-0.000029
3892.823734,-0.000022
3893.305937,-0.000023
3893.788140,0.000002
3894.270343,0.000106
3894.752545,0.000136
3895.234748,0.000084
3895.716951,0.000167
3896.199154,0.000192
3896.681357,0.000070
3897.163560,0.000003
3897.645763,-0.000006
3898.127966,0.000091
3898.610168,0.000183
3899.092371,-0.000048
3899.574574,-0.000430
3900.056777,-0.000517
3900.538980,-0.000258
3901.021183,0.000042
3901.503386,0.000023
3901.985588,-0.000352
3902.467791,-0.000573
3902.949994,-0.000419
3903.432197,-0.000233
3903.914400,-0.000197
3904.396603,-0.000250
3904.878806,-0.000272
3905.361008,-0.000121
3905.843211,0.000135
3906.325414,0.000076
3906.807617,-0.000207
3907.289820,-0.000133
3907.772023,0.000138
3908.254226,0.000196
3908.736429,0.000069
3909.218631,0.000043
3909.700834,0.000172
3910.183037,0.000065
3910.665240,-0.000114
3911.147443,0.000095
3911.629646,0.000251
3912.111849,0.000046
3912.594051,-0.000009
3913.076254,0.000098
3913.558457,0.000049
3914.040660,0.000121
3914.522863,0.000311
3915.005066,0.000278
3915.487269,0.000092
3915.969472,-0.000049
3916.451674,-0.000004
3916.933877,0.000017
3917.416080,-0.000215
3917.898283,-0.000301
3918.380486,-0.000102
3918.862689,0.000032
3919.344892,0.000047
3919.827094,0.000066
3920.309297,0.000095
3920.791500,0.000070
3921.273703,0.000049
3921.755906,0.000120
3922.238109,0.000109
3922.720312,-0.000099
3923.202515,-0.000182
3923.684717,-0.000043
3924.166920,-0.000010
3924.649123,-0.000100
3925.131326,-0.000094
3925.613529,0.000023
3926.095732,0.000125
3926.577935,0.000179
3927.060137,0.000192
3927.542340,0.000157
3928.024543,0.000137
3928.506746,0.000014
3928.988949,-0.000159
3929.471152,-0.000145
3929.953355,-0.000156
3930.435558,-0.000209
3930.917760,-0.000115
3931.399963,0.000003
3931.882166,0.000117
3932.364369,0.000047
3932.846572,-0.000222
3933.328775,-0.000169
3933.810978,0.000077
3934.293180,0.000065
3934.775383,0.000006
3935.257586,0.000022
3935.739789,-0.000052
3936.221992,-0.000100
3936.704195,-0.000057
3937.186398,-0.000005
3937.668600,0.000074
3938.150803,0.000055
3938.633006,-0.000074
3939.115209,-0.000016
3939.597412,0.000166
3940.079615,0.000127
3940.561818,0.000039
3941.044021,0.000129
3941.526223,0.000115
3942.008426,-0.000001
3942.490629,-0.000012
3942.972832,-0.000104
3943.455035,-0.000091
3943.937238,0.000091
3944.419441,0.000001
3944.901643,-0.000164
3945.383846,-0.000093
3945.866049,0.000029
3946.348252,0.000036
3946.830455,-0.000008
3947.312658,0.000047
3947.794861,0.000108
3948.277064,0.000089
3948.759266,-0.000031
3949.241469,-0.000182
3949.723672,-0.000107
3950.205875,0.000002
3950.688078,0.000044
3951.170281,0.000151
3951.652484,0.000054
3952.134686,-0.000049
3952.616889,0.000159
3953.099092,0.000283
3953.581295,0.000248
3954.063498,0.000277
3954.545701,0.000190
3955.027904,-0.000009
3955.510107,-0.000097
3955.992309,-0.000094
3956.474512,-0.000084
3956.956715,-0.000039
3957.438918,0.000043
3957.921121,0.000017
3958.403324,-0.000149
3958.885527,-0.000259
3959.367729,-0.000227
3959.849932,-0.000123
3960.332135,-0.000082
3960.814338,-0.000162
3961.296541,-0.000205
3961.778744,-0.000157
3962.260947,-0.000158
3962.743150,-0.000137
3963.225352,-0.000055
3963.707555,-0.000106
3964.189758,-0.000164
3964.671961,-0.000051
3965.154164,0.000035
3965.636367,-0.000039
3966.118570,-0.000123
3966.600772,-0.000018
3967.082975,0.000184
3967.565178,0.000285
3968.047381,0.000360
3968.529584,0.000421
3969.011787,0.000272
3969.493990,-0.000034
3969.976192,-0.000104
3970.458395,0.000129
3970.940598,0.000247
3971.422801,0.000102
3971.905004,0.000006
3972.387207,0.000051
3972.869410,0.000055
3973.351613,0.000061
3973.833815,-0.000018
3974.316018,-0.000164
3974.798221,0.000016
3975.280424,0.000192
3975.762627,0.000109
3976.244830,0.000179
3976.727033,0.000244
3977.209235,0.000162
3977.691438,0.000090
3978.173641,-0.000031
3978.655844,-0.000123
3979.138047,-0.000128
3979.620250,-0.000142
3980.102453,-0.000237
3980.584656,-0.000260
3981.066858,-0.000138
3981.549061,-0.000096
3982.031264,-0.000112
3982.513467,-0.000104
3982.995670,-0.000023
3983.477873,0.000175
3983.960076,0.000150
3984.442278,0.000008
3984.924481,0.000120
3985.406684,0.000140
3985.888887,0.000073
3986.371090,0.000239
3986.853293,0.000205
3987.335496,-0.000088
3987.817699,-0.000104
3988.299901,0.000061
3988.782104,0.000112
3989.264307,0.000138
3989.746510,0.000154
3990.228713,0.000096
3990.710916,0.000034
3991.193119,0.000037
3991.675321,0.000125
3992.157524,0.000164
3992.639727,0.000071
3993.121930,0.000053
3993.604133,0.000048
3994.086336,-0.000077
3994.568539,-0.000062
3995.050742,0.000159
3995.532944,0.000252
3996.015147,0.000042
3996.497350,-0.000111
3996.979553,-0.000023
3997.461756,-0.000025
3997.943959,-0.000135
3998.426162,-0.000171
3998.908364,-0.000148
3999.390567,-0.000103
3999.872770,-0.000061
4000.354973,-0.000002
