XLabel,Wavenumber
YLabel,Absorbance
FileType,Absorbance
DisplayDirection,20300
PeakDirection,20312
899.790547,-0.001256
900.272750,-0.000516
900.754953,0.000154
901.237156,0.000409
901.719359,-0.000031
902.201562,0.000175
902.683764,0.001381
903.165967,0.001403
903.648170,0.000383
904.130373,0.000549
904.612576,0.001261
905.094779,0.001232
905.576982,0.000646
906.059184,-0.000090
906.541387,-0.000286
907.023590,-0.000297
907.505793,-0.000698
907.987996,-0.000603
908.470199,0.000246
908.952402,0.001016
909.434605,0.000747
909.916807,-0.000288
910.399010,-0.000394
910.881213,-0.000285
911.363416,-0.000470
911.845619,0.000517
912.327822,0.000664
912.810025,-0.000542
913.292227,-0.000420
913.774430,0.000146
914.256633,-0.000007
914.738836,-0.000311
915.221039,-0.000223
915.703242,0.000392
916.185445,0.000400
916.667648,0.000035
917.149850,-0.000143
917.632053,-0.000568
918.114256,-0.000528
918.596459,-0.000357
919.078662,-0.000391
919.560865,0.000353
920.043068,0.000883
920.525270,0.000459
921.007473,0.000280
921.489676,0.000321
921.971879,-0.000205
922.454082,-0.000511
922.936285,0.000039
923.418488,0.000078
923.900690,-0.000246
924.382893,0.000416
924.865096,0.000577
925.347299,-0.000426
925.829502,-0.000711
926.311705,-0.000212
926.793908,-0.000091
927.276111,-0.000047
927.758313,0.000190
928.240516,0.000027
928.722719,-0.000168
929.204922,0.000321
929.687125,0.000876
930.169328,0.000541
930.651531,-0.000092
931.133733,0.000067
931.615936,0.000168
932.098139,-0.000364
932.580342,-0.000343
933.062545,-0.000216
933.544748,-0.000802
934.026951,-0.000748
934.509154,-0.000103
934.991356,0.000048
935.473559,-0.000049
935.955762,-0.000559
936.437965,-0.000896
936.920168,-0.000739
937.402371,-0.000875
937.884574,-0.000788
938.366776,-0.000610
938.848979,-0.000333
939.331182,0.000359
939.813385,0.000506
940.295588,0.000549
940.777791,0.001093
941.259994,0.001435
941.742197,0.001406
942.224399,0.001584
942.706602,0.001439
943.188805,0.000273
943.671008,-0.000134
944.153211,0.000616
944.635414,0.000849
945.117617,0.000554
945.599819,0.000483
946.082022,0.000731
946.564225,0.000567
947.046428,0.000292
947.528631,0.000378
948.010834,0.000178
948.493037,0.000046
948.975240,-0.000182
949.457442,-0.000449
949.939645,-0.000063
950.421848,-0.000255
950.904051,-0.000862
951.386254,-0.000492
951.868457,0.000084
952.350660,0.000197
952.832862,0.000154
953.315065,0.000293
953.797268,0.000590
954.279471,0.000391
954.761674,0.000048
955.243877,0.000307
955.726080,0.000562
956.208282,0.000481
956.690485,0.000585
957.172688,0.000680
957.654891,0.000538
958.137094,0.000453
958.619297,0.000265
959.101500,0.000136
959.583703,0.000211
960.065905,0.000126
960.548108,0.000213
961.030311,0.000213
961.512514,-0.000172
961.994717,-0.000091
962.476920,0.000279
962.959123,0.000232
963.441325,0.000167
963.923528,0.000503
964.405731,0.000689
964.887934,0.000484
965.370137,0.000294
965.852340,0.000154
966.334543,0.000192
966.816746,0.000288
967.298948,0.000291
967.781151,0.000361
968.263354,0.000237
968.745557,0.000198
969.227760,0.000277
969.709963,0.000015
970.192166,-0.000031
970.674368,0.000261
971.156571,0.000352
971.638774,0.000200
972.120977,0.000011
972.603180,0.000064
973.085383,0.000206
973.567586,0.000152
974.049789,0.000068
974.531991,0.000030
975.014194,0.000084
975.496397,0.000243
975.978600,0.000181
976.460803,-0.000008
976.943006,0.000066
977.425209,0.000124
977.907411,0.000163
978.389614,0.000559
978.871817,0.000712
979.354020,0.000483
979.836223,0.000506
980.318426,0.000496
980.800629,0.000368
981.282831,0.000331
981.765034,0.000226
982.247237,0.000268
982.729440,0.000412
983.211643,0.000415
983.693846,0.000296
984.176049,0.000067
984.658252,0.000072
985.140454,0.000375
985.622657,0.000383
986.104860,0.000117
986.587063,0.000142
987.069266,0.000241
987.551469,0.000155
988.033672,0.000230
988.515874,0.000293
988.998077,0.000246
989.480280,0.000357
989.962483,0.000376
990.444686,0.000242
990.926889,0.000109
991.409092,0.000090
991.891295,0.000334
992.373497,0.000484
992.855700,0.000506
993.337903,0.000579
993.820106,0.000381
994.302309,0.000179
994.784512,0.000242
995.266715,0.000220
995.748917,0.000047
996.231120,-0.000191
996.713323,-0.000248
997.195526,-0.000032
997.677729,0.000079
998.159932,0.000078
998.642135,0.000109
999.124338,0.000003
999.606540,-0.000137
1000.088743,-0.000174
1000.570946,-0.000221
1001.053149,-0.000106
1001.535352,0.000153
1002.017555,0.000247
1002.499758,0.000324
1002.981960,0.000402
1003.464163,0.000316
1003.946366,0.000236
1004.428569,0.000193
1004.910772,0.000067
1005.392975,-0.000109
1005.875178,-0.000154
1006.357381,-0.000028
1006.839583,0.000037
1007.321786,-0.000069
1007.803989,-0.000178
1008.286192,-0.000054
1008.768395,0.000100
1009.250598,0.000006
1009.732801,-0.000063
1010.215003,-0.000014
1010.697206,0.000059
1011.179409,0.000168
1011.661612,0.000206
1012.143815,0.000291
1012.626018,0.000384
1013.108221,0.000241
1013.590423,0.000110
1014.072626,0.000174
1014.554829,0.000220
1015.037032,0.000252
1015.519235,0.000257
1016.001438,0.000155
1016.483641,0.000185
1016.965844,0.000218
1017.448046,0.000060
1017.930249,0.000024
1018.412452,0.000110
1018.894655,0.000152
1019.376858,0.000158
1019.859061,0.000174
1020.341264,0.000134
1020.823466,-0.000041
1021.305669,-0.000044
1021.787872,0.000061
1022.270075,0.000022
1022.752278,0.000055
1023.234481,0.000083
1023.716684,-0.000042
1024.198887,-0.000106
1024.681089,-0.000034
1025.163292,-0.000059
1025.645495,-0.000106
1026.127698,0.000088
1026.609901,0.000240
1027.092104,0.000253
1027.574307,0.000253
1028.056509,0.000106
1028.538712,0.000086
1029.020915,0.000263
1029.503118,0.000218
1029.985321,0.000093
1030.467524,0.000093
1030.949727,0.000089
1031.431930,0.000126
1031.914132,0.000167
1032.396335,0.000123
1032.878538,0.000067
1033.360741,0.000050
1033.842944,0.000055
1034.325147,-0.000015
1034.807350,-0.000023
1035.289552,0.000085
1035.771755,0.000059
1036.253958,0.000031
1036.736161,0.000149
1037.218364,0.000226
1037.700567,0.000239
1038.182770,0.000271
1038.664973,0.000280
1039.147175,0.000184
1039.629378,0.000022
1040.111581,-0.000032
1040.593784,-0.000028
1041.075987,-0.000122
1041.558190,-0.000156
1042.040393,-0.000072
1042.522595,-0.000076
1043.004798,-0.000095
1043.487001,0.000040
1043.969204,0.000141
1044.451407,0.000147
1044.933610,0.000155
1045.415813,0.000022
1045.898015,-0.000103
1046.380218,-0.000024
1046.862421,0.000025
1047.344624,-0.000039
1047.826827,-0.000129
1048.309030,-0.000166
1048.791233,-0.000072
1049.273436,0.000032
1049.755638,0.000020
1050.237841,0.000048
1050.720044,0.000143
1051.202247,0.000141
1051.684450,0.000159
1052.166653,0.000182
1052.648856,0.000130
1053.131058,0.000109
1053.613261,0.000007
1054.095464,-0.000081
1054.577667,0.000012
1055.059870,0.000133
1055.542073,0.000209
1056.024276,0.000233
1056.506479,0.000196
1056.988681,0.000179
1057.470884,0.000207
1057.953087,0.000163
1058.435290,0.000124
1058.917493,0.000188
1059.399696,0.000154
1059.881899,0.000058
1060.364101,0.000091
1060.846304,0.000168
1061.328507,0.000151
1061.810710,0.000058
1062.292913,-0.000020
1062.775116,-0.000035
1063.257319,0.000007
1063.739522,0.000038
1064.221724,0.000024
1064.703927,-0.000027
1065.186130,-0.000060
1065.668333,0.000045
1066.150536,0.000148
1066.632739,0.000083
1067.114942,-0.000003
1067.597144,-0.000004
1068.079347,0.000002
1068.561550,0.000018
1069.043753,0.000061
1069.525956,0.000006
1070.008159,-0.000066
1070.490362,-0.000003
1070.972564,-0.000007
1071.454767,-0.000126
1071.936970,-0.000070
1072.419173,0.000088
1072.901376,0.000106
1073.383579,0.000111
1073.865782,0.000170
1074.347985,0.000171
1074.830187,0.000146
1075.312390,0.000128
1075.794593,0.000156
1076.276796,0.000204
1076.758999,0.000201
1077.241202,0.000213
1077.723405,0.000162
1078.205607,0.000057
1078.687810,0.000060
1079.170013,0.000051
1079.652216,0.000019
1080.134419,0.000057
1080.616622,0.000067
1081.098825,0.000038
1081.581028,0.000066
1082.063230,0.000155
1082.545433,0.000099
1083.027636,-0.000048
1083.509839,0.000028
1083.992042,0.000102
1084.474245,0.000020
1084.956448,0.000026
1085.438650,0.000094
1085.920853,0.000132
1086.403056,0.000066
1086.885259,-0.000042
1087.367462,0.000037
1087.849665,0.000159
1088.331868,0.000134
1088.814071,0.000083
1089.296273,0.000148
1089.778476,0.000251
1090.260679,0.000215
1090.742882,0.000159
1091.225085,0.000188
1091.707288,0.000166
1092.189491,0.000138
1092.671693,0.000193
1093.153896,0.000245
1093.636099,0.000283
1094.118302,0.000295
1094.600505,0.000190
1095.082708,0.000124
1095.564911,0.000162
1096.047114,0.000111
1096.529316,0.000072
1097.011519,0.000070
1097.493722,-0.000024
1097.975925,-0.000077
1098.458128,-0.000034
1098.940331,-0.000014
1099.422534,-0.000053
1099.904736,-0.000028
1100.386939,0.000057
1100.869142,0.000063
1101.351345,0.000040
1101.833548,0.000003
1102.315751,-0.000062
1102.797954,-0.000070
1103.280156,-0.000028
1103.762359,0.000041
1104.244562,0.000109
1104.726765,0.000116
1105.208968,0.000021
1105.691171,-0.000070
1106.173374,-0.000038
1106.655577,-0.000009
1107.137779,-0.000027
1107.619982,-0.000025
1108.102185,0.000025
1108.584388,0.000083
1109.066591,-0.000007
1109.548794,-0.000066
1110.030997,0.000120
1110.513199,0.000227
1110.995402,0.000134
1111.477605,0.000042
1111.959808,-0.000023
1112.442011,0.000003
1112.924214,0.000072
1113.406417,0.000079
1113.888620,0.000127
1114.370822,0.000150
1114.853025,0.000129
1115.335228,0.000157
1115.817431,0.000089
1116.299634,0.000035
1116.781837,0.000110
1117.264040,0.000158
1117.746242,0.000203
1118.228445,0.000209
1118.710648,0.000177
1119.192851,0.000184
1119.675054,0.000173
1120.157257,0.000142
1120.639460,0.000030
1121.121663,-0.000052
1121.603865,0.000023
1122.086068,-0.000004
1122.568271,-0.000115
1123.050474,0.000010
1123.532677,0.000281
1124.014880,0.000324
1124.497083,0.000123
1124.979285,0.000000
1125.461488,-0.000002
1125.943691,-0.000030
1126.425894,-0.000051
1126.908097,-0.000043
1127.390300,-0.000058
1127.872503,-0.000070
1128.354706,-0.000020
1128.836908,0.000015
1129.319111,-0.000036
1129.801314,-0.000045
1130.283517,0.000055
1130.765720,0.000101
1131.247923,0.000014
1131.730126,-0.000064
1132.212328,-0.000060
1132.694531,-0.000043
1133.176734,0.000018
1133.658937,0.000116
1134.141140,0.000088
1134.623343,0.000013
1135.105546,-0.000009
1135.587748,-0.000085
1136.069951,-0.000118
1136.552154,-0.000045
1137.034357,0.000007
1137.516560,0.000041
1137.998763,0.000060
1138.480966,0.000034
1138.963169,0.000025
1139.445371,0.000036
1139.927574,-0.000003
1140.409777,0.000008
1140.891980,0.000065
1141.374183,-0.000002
1141.856386,-0.000046
1142.338589,-0.000015
1142.820791,-0.000112
1143.302994,-0.000184
1143.785197,-0.000063
1144.267400,0.000019
1144.749603,-0.000038
1145.231806,-0.000036
1145.714009,0.000026
1146.196212,0.000017
1146.678414,-0.000048
1147.160617,-0.000076
1147.642820,-0.000055
1148.125023,-0.000101
1148.607226,-0.000102
1149.089429,0.000026
1149.571632,0.000026
1150.053834,-0.000093
1150.536037,-0.000115
1151.018240,-0.000060
1151.500443,-0.000011
1151.982646,0.000016
1152.464849,0.000001
1152.947052,-0.000037
1153.429255,-0.000037
1153.911457,-0.000044
1154.393660,-0.000087
1154.875863,-0.000083
1155.358066,-0.000052
1155.840269,-0.000098
1156.322472,-0.000116
1156.804675,-0.000037
1157.286877,-0.000034
1157.769080,-0.000023
1158.251283,0.000032
1158.733486,-0.000021
1159.215689,-0.000040
1159.697892,-0.000019
1160.180095,-0.000046
1160.662298,-0.000045
1161.144500,-0.000023
1161.626703,0.000010
1162.108906,0.000026
1162.591109,0.000014
1163.073312,-0.000023
1163.555515,-0.000102
1164.037718,-0.000174
1164.519920,-0.000202
1165.002123,-0.000137
1165.484326,-0.000049
1165.966529,-0.000043
1166.448732,-0.000017
1166.930935,0.000073
1167.413138,0.000090
1167.895340,0.000017
1168.377543,-0.000054
1168.859746,-0.000136
1169.341949,-0.000129
1169.824152,-0.000051
1170.306355,-0.000079
1170.788558,-0.000087
1171.270761,-0.000063
1171.752963,-0.000077
1172.235166,-0.000027
1172.717369,0.000013
1173.199572,0.000032
1173.681775,-0.000001
1174.163978,-0.000094
1174.646181,-0.000007
1175.128383,0.000080
1175.610586,-0.000076
1176.092789,-0.000143
1176.574992,-0.000006
1177.057195,0.000081
1177.539398,0.000070
1178.021601,-0.000025
1178.503804,-0.000098
1178.986006,-0.000014
1179.468209,0.000044
1179.950412,0.000003
1180.432615,0.000014
1180.914818,0.000065
1181.397021,0.000114
1181.879224,0.000088
1182.361426,-0.000027
1182.843629,-0.000085
1183.325832,-0.000086
1183.808035,-0.000087
1184.290238,-0.000042
1184.772441,-0.000024
1185.254644,-0.000061
1185.736847,-0.000049
1186.219049,-0.000005
1186.701252,0.000006
1187.183455,-0.000044
1187.665658,-0.000103
1188.147861,-0.000048
1188.630064,0.000059
1189.112267,0.000044
1189.594469,-0.000058
1190.076672,-0.000078
1190.558875,0.000001
1191.041078,0.000035
1191.523281,-0.000021
1192.005484,-0.000046
1192.487687,0.000007
1192.969889,0.000005
1193.452092,-0.000063
1193.934295,-0.000034
1194.416498,0.000061
1194.898701,0.000051
1195.380904,-0.000040
1195.863107,-0.000058
1196.345310,0.000021
1196.827512,0.000055
1197.309715,0.000049
1197.791918,0.000091
1198.274121,0.000031
1198.756324,-0.000129
1199.238527,-0.000160
1199.720730,-0.000104
1200.202932,-0.000092
1200.685135,-0.000114
1201.167338,-0.000124
1201.649541,-0.000134
1202.131744,-0.000171
1202.613947,-0.000151
1203.096150,-0.000106
1203.578353,-0.000100
1204.060555,-0.000114
1204.542758,-0.000166
1205.024961,-0.000208
1205.507164,-0.000212
1205.989367,-0.000173
1206.471570,-0.000121
1206.953773,-0.000124
1207.435975,-0.000100
1207.918178,-0.000071
1208.400381,-0.000126
1208.882584,-0.000140
1209.364787,-0.000051
1209.846990,0.000010
1210.329193,0.000016
1210.811396,0.000058
1211.293598,0.000034
1211.775801,-0.000093
1212.258004,-0.000140
1212.740207,-0.000141
1213.222410,-0.000170
1213.704613,-0.000127
1214.186816,-0.000033
1214.669018,-0.000024
1215.151221,-0.000137
1215.633424,-0.000176
1216.115627,-0.000028
1216.597830,0.000075
1217.080033,0.000098
1217.562236,0.000167
1218.044439,0.000125
1218.526641,0.000014
1219.008844,0.000044
1219.491047,0.000073
1219.973250,0.000062
1220.455453,0.000120
1220.937656,0.000118
1221.419859,0.000086
1221.902061,0.000120
1222.384264,0.000127
1222.866467,0.000150
1223.348670,0.000148
1223.830873,0.000073
1224.313076,0.000118
1224.795279,0.000224
1225.277481,0.000212
1225.759684,0.000184
1226.241887,0.000245
1226.724090,0.000356
1227.206293,0.000465
1227.688496,0.000581
1228.170699,0.000645
1228.652902,0.000611
1229.135104,0.000582
1229.617307,0.000587
1230.099510,0.000572
1230.581713,0.000567
1231.063916,0.000655
1231.546119,0.000779
1232.028322,0.000861
1232.510524,0.000995
1232.992727,0.001142
1233.474930,0.001190
1233.957133,0.001158
1234.439336,0.001107
1234.921539,0.001181
1235.403742,0.001326
1235.885945,0.001397
1236.368147,0.001485
1236.850350,0.001581
1237.332553,0.001623
1237.814756,0.001696
1238.296959,0.001837
1238.779162,0.002019
1239.261365,0.002130
1239.743567,0.002131
1240.225770,0.002162
1240.707973,0.002254
1241.190176,0.002300
1241.672379,0.002330
1242.154582,0.002496
1242.636785,0.002729
1243.118988,0.002872
1243.601190,0.003039
1244.083393,0.003200
1244.565596,0.003195
1245.047799,0.003205
1245.530002,0.003324
1246.012205,0.003458
1246.494408,0.003568
1246.976610,0.003629
1247.458813,0.003688
1247.941016,0.003781
1248.423219,0.003885
1248.905422,0.003951
1249.387625,0.004032
1249.869828,0.004181
1250.352031,0.004292
1250.834233,0.004347
1251.316436,0.004367
1251.798639,0.004387
1252.280842,0.004437
1252.763045,0.004427
1253.245248,0.004365
1253.727451,0.004245
1254.209653,0.004052
1254.691856,0.003880
1255.174059,0.003768
1255.656262,0.003738
1256.138465,0.003645
1256.620668,0.003428
1257.102871,0.003273
1257.585073,0.003200
1258.067276,0.003218
1258.549479,0.003289
1259.031682,0.003197
1259.513885,0.002965
1259.996088,0.002854
1260.478291,0.002912
1260.960494,0.002881
1261.442696,0.002879
1261.924899,0.003196
1262.407102,0.003863
1262.889305,0.005380
1263.371508,0.007247
1263.853711,0.007518
1264.335914,0.006218
1264.818116,0.004968
1265.300319,0.004134
1265.782522,0.003516
1266.264725,0.003218
1266.746928,0.003152
1267.229131,0.003127
1267.711334,0.003163
1268.193537,0.003297
1268.675739,0.003461
1269.157942,0.003651
1269.640145,0.003824
1270.122348,0.003951
1270.604551,0.004107
1271.086754,0.004243
1271.568957,0.004312
1272.051159,0.004372
1272.533362,0.004439
1273.015565,0.004529
1273.497768,0.004583
1273.979971,0.004522
1274.462174,0.004395
1274.944377,0.004273
1275.426580,0.004262
1275.908782,0.004308
1276.390985,0.004245
1276.873188,0.004129
1277.355391,0.004016
1277.837594,0.003845
1278.319797,0.003623
1278.802000,0.003482
1279.284202,0.003493
1279.766405,0.003443
1280.248608,0.003296
1280.730811,0.003230
1281.213014,0.003163
1281.695217,0.003020
1282.177420,0.002836
1282.659622,0.002691
1283.141825,0.002641
1283.624028,0.002528
1284.106231,0.002377
1284.588434,0.002316
1285.070637,0.002208
1285.552840,0.002053
1286.035043,0.001970
1286.517245,0.001925
1286.999448,0.001846
1287.481651,0.001730
1287.963854,0.001630
1288.446057,0.001510
1288.928260,0.001304
1289.410463,0.001124
1289.892665,0.001091
1290.374868,0.001085
1290.857071,0.001017
1291.339274,0.000978
1291.821477,0.000952
1292.303680,0.000877
1292.785883,0.000766
1293.268086,0.000635
1293.750288,0.000534
1294.232491,0.000477
1294.714694,0.000429
1295.196897,0.000317
1295.679100,0.000221
1296.161303,0.000298
1296.643506,0.000301
1297.125708,0.000163
1297.607911,0.000147
1298.090114,0.000182
1298.572317,0.000218
1299.054520,0.000228
1299.536723,0.000146
1300.018926,0.000112
1300.501129,0.000067
1300.983331,-0.000017
1301.465534,-0.000022
1301.947737,0.000009
1302.429940,0.000019
1302.912143,-0.000030
1303.394346,-0.000121
1303.876549,-0.000186
1304.358751,-0.000235
1304.840954,-0.000288
1305.323157,-0.000251
1305.805360,-0.000157
1306.287563,-0.000271
1306.769766,-0.000409
1307.251969,-0.000232
1307.734172,-0.000051
1308.216374,-0.000125
1308.698577,-0.000207
1309.180780,-0.000172
1309.662983,-0.000156
1310.145186,-0.000152
1310.627389,-0.000081
1311.109592,-0.000033
1311.591794,-0.000071
1312.073997,-0.000100
1312.556200,-0.000176
1313.038403,-0.000268
1313.520606,-0.000195
1314.002809,-0.000109
1314.485012,-0.000101
1314.967214,-0.000079
1315.449417,-0.000122
1315.931620,-0.000214
1316.413823,-0.000258
1316.896026,-0.000225
1317.378229,-0.000168
1317.860432,-0.000137
1318.342635,-0.000065
1318.824837,0.000020
1319.307040,0.000024
1319.789243,-0.000015
1320.271446,-0.000003
1320.753649,0.000038
1321.235852,0.000037
1321.718055,0.000051
1322.200257,0.000121
1322.682460,0.000157
1323.164663,0.000118
1323.646866,0.000111
1324.129069,0.000173
1324.611272,0.000185
1325.093475,0.000136
1325.575678,0.000157
1326.057880,0.000263
1326.540083,0.000332
1327.022286,0.000306
1327.504489,0.000280
1327.986692,0.000349
1328.468895,0.000448
1328.951098,0.000464
1329.433300,0.000364
1329.915503,0.000247
1330.397706,0.000293
1330.879909,0.000418
1331.362112,0.000437
1331.844315,0.000413
1332.326518,0.000412
1332.808721,0.000387
1333.290923,0.000264
1333.773126,0.000201
1334.255329,0.000332
1334.737532,0.000418
1335.219735,0.000439
1335.701938,0.000457
1336.184141,0.000358
1336.666343,0.000233
1337.148546,0.000215
1337.630749,0.000338
1338.112952,0.000478
1338.595155,0.000520
1339.077358,0.000541
1339.559561,0.000493
1340.041764,0.000448
1340.523966,0.000529
1341.006169,0.000557
1341.488372,0.000547
1341.970575,0.000612
1342.452778,0.000614
1342.934981,0.000506
1343.417184,0.000355
1343.899386,0.000293
1344.381589,0.000436
1344.863792,0.000589
1345.345995,0.000616
1345.828198,0.000566
1346.310401,0.000427
1346.792604,0.000383
1347.274806,0.000440
1347.757009,0.000441
1348.239212,0.000532
1348.721415,0.000607
1349.203618,0.000531
1349.685821,0.000504
1350.168024,0.000524
1350.650227,0.000563
1351.132429,0.000597
1351.614632,0.000539
1352.096835,0.000512
1352.579038,0.000494
1353.061241,0.000463
1353.543444,0.000520
1354.025647,0.000520
1354.507849,0.000483
1354.990052,0.000567
1355.472255,0.000648
1355.954458,0.000584
1356.436661,0.000549
1356.918864,0.000698
1357.401067,0.000755
1357.883270,0.000645
1358.365472,0.000570
1358.847675,0.000493
1359.329878,0.000405
1359.812081,0.000311
1360.294284,0.000279
1360.776487,0.000388
1361.258690,0.000483
1361.740892,0.000489
1362.223095,0.000499
1362.705298,0.000484
1363.187501,0.000384
1363.669704,0.000438
1364.151907,0.000642
1364.634110,0.000672
1365.116313,0.000635
1365.598515,0.000675
1366.080718,0.000665
1366.562921,0.000641
1367.045124,0.000734
1367.527327,0.000812
1368.009530,0.000697
1368.491733,0.000560
1368.973935,0.000560
1369.456138,0.000594
1369.938341,0.000558
1370.420544,0.000512
1370.902747,0.000582
1371.384950,0.000745
1371.867153,0.000817
1372.349355,0.000656
1372.831558,0.000508
1373.313761,0.000519
1373.795964,0.000482
1374.278167,0.000533
1374.760370,0.000705
1375.242573,0.000784
1375.724776,0.000814
1376.206978,0.000787
1376.689181,0.000702
1377.171384,0.000717
1377.653587,0.000816
1378.135790,0.000875
1378.617993,0.000926
1379.100196,0.000963
1379.582398,0.000935
1380.064601,0.000902
1380.546804,0.000927
1381.029007,0.001010
1381.511210,0.001007
1381.993413,0.000966
1382.475616,0.001023
1382.957819,0.001082
1383.440021,0.001156
1383.922224,0.001140
1384.404427,0.001049
1384.886630,0.001147
1385.368833,0.001206
1385.851036,0.001114
1386.333239,0.001068
1386.815441,0.001049
1387.297644,0.001093
1387.779847,0.001182
1388.262050,0.001254
1388.744253,0.001336
1389.226456,0.001341
1389.708659,0.001385
1390.190862,0.001501
1390.673064,0.001403
1391.155267,0.001248
1391.637470,0.001263
1392.119673,0.001318
1392.601876,0.001451
1393.084079,0.001594
1393.566282,0.001497
1394.048484,0.001320
1394.530687,0.001384
1395.012890,0.001516
1395.495093,0.001463
1395.977296,0.001444
1396.459499,0.001549
1396.941702,0.001607
1397.423905,0.001582
1397.906107,0.001610
1398.388310,0.001703
1398.870513,0.001586
1399.352716,0.001383
1399.834919,0.001513
1400.317122,0.001746
1400.799325,0.001809
1401.281527,0.001782
1401.763730,0.001707
1402.245933,0.001572
1402.728136,0.001591
1403.210339,0.001790
1403.692542,0.001877
1404.174745,0.001855
1404.656947,0.001797
1405.139150,0.001710
1405.621353,0.001684
1406.103556,0.001637
1406.585759,0.001619
1407.067962,0.001653
1407.550165,0.001610
1408.032368,0.001594
1408.514570,0.001592
1408.996773,0.001616
1409.478976,0.001715
1409.961179,0.001648
1410.443382,0.001560
1410.925585,0.001610
1411.407788,0.001578
1411.889990,0.001546
1412.372193,0.001586
1412.854396,0.001659
1413.336599,0.001659
1413.818802,0.001484
1414.301005,0.001484
1414.783208,0.001621
1415.265411,0.001561
1415.747613,0.001506
1416.229816,0.001526
1416.712019,0.001532
1417.194222,0.001530
1417.676425,0.001452
1418.158628,0.001400
1418.640831,0.001299
1419.123033,0.001054
1419.605236,0.001102
1420.087439,0.001363
1420.569642,0.001394
1421.051845,0.001366
1421.534048,0.001375
1422.016251,0.001340
1422.498454,0.001287
1422.980656,0.001302
1423.462859,0.001283
1423.945062,0.001113
1424.427265,0.001042
1424.909468,0.001167
1425.391671,0.001253
1425.873874,0.001262
1426.356076,0.001278
1426.838279,0.001260
1427.320482,0.001187
1427.802685,0.001164
1428.284888,0.001169
1428.767091,0.001176
1429.249294,0.001253
1429.731497,0.001216
1430.213699,0.001036
1430.695902,0.001057
1431.178105,0.001212
1431.660308,0.001140
1432.142511,0.001004
1432.624714,0.001093
1433.106917,0.001131
1433.589119,0.001084
1434.071322,0.001129
1434.553525,0.001072
1435.035728,0.000978
1435.517931,0.000927
1436.000134,0.000673
1436.482337,0.000397
1436.964539,0.000650
1437.446742,0.001037
1437.928945,0.001056
1438.411148,0.000974
1438.893351,0.000971
1439.375554,0.001010
1439.857757,0.001052
1440.339960,0.001078
1440.822162,0.001084
1441.304365,0.001028
1441.786568,0.001003
1442.268771,0.001029
1442.750974,0.000990
1443.233177,0.000964
1443.715380,0.000895
1444.197582,0.000782
1444.679785,0.000831
1445.161988,0.000899
1445.644191,0.000866
1446.126394,0.000836
1446.608597,0.000798
1447.090800,0.000710
1447.573003,0.000569
1448.055205,0.000532
1448.537408,0.000662
1449.019611,0.000744
1449.501814,0.000837
1449.984017,0.000925
1450.466220,0.000820
1450.948423,0.000716
1451.430625,0.000703
1451.912828,0.000716
1452.395031,0.000844
1452.877234,0.000829
1453.359437,0.000657
1453.841640,0.000612
1454.323843,0.000538
1454.806046,0.000422
1455.288248,0.000340
1455.770451,0.000137
1456.252654,-0.000121
1456.734857,-0.000198
1457.217060,0.000165
1457.699263,0.000411
1458.181466,0.000448
1458.663668,0.000564
1459.145871,0.000643
1459.628074,0.000697
1460.110277,0.000808
1460.592480,0.000874
1461.074683,0.000863
1461.556886,0.000774
1462.039089,0.000714
1462.521291,0.000699
1463.003494,0.000631
1463.485697,0.000511
1463.967900,0.000345
1464.450103,0.000196
1464.932306,0.000245
1465.414509,0.000505
1465.896711,0.000652
1466.378914,0.000585
1466.861117,0.000549
1467.343320,0.000692
1467.825523,0.000778
1468.307726,0.000688
1468.789929,0.000657
1469.272131,0.000693
1469.754334,0.000625
1470.236537,0.000531
1470.718740,0.000426
1471.200943,0.000179
1471.683146,-0.000092
1472.165349,-0.000056
1472.647552,0.000106
1473.129754,-0.000007
1473.611957,0.000000
1474.094160,0.000347
1474.576363,0.000482
1475.058566,0.000415
1475.540769,0.000339
1476.022972,0.000203
1476.505174,0.000162
1476.987377,0.000310
1477.469580,0.000412
1477.951783,0.000443
1478.433986,0.000442
1478.916189,0.000414
1479.398392,0.000408
1479.880595,0.000361
1480.362797,0.000317
1480.845000,0.000377
1481.327203,0.000433
1481.809406,0.000445
1482.291609,0.000449
1482.773812,0.000456
1483.256015,0.000446
1483.738217,0.000390
1484.220420,0.000277
1484.702623,0.000159
1485.184826,0.000126
1485.667029,0.000095
1486.149232,0.000030
1486.631435,-0.000010
1487.113638,-0.000046
1487.595840,0.000017
1488.078043,0.000108
1488.560246,0.000076
1489.042449,0.000004
1489.524652,-0.000048
1490.006855,-0.000080
1490.489058,-0.000125
1490.971260,-0.000069
1491.453463,0.000125
1491.935666,0.000169
1492.417869,0.000116
1492.900072,0.000138
1493.382275,0.000103
1493.864478,0.000024
1494.346680,-0.000006
1494.828883,-0.000047
1495.311086,-0.000143
1495.793289,-0.000313
1496.275492,-0.000357
1496.757695,-0.000111
1497.239898,0.000089
1497.722101,0.000120
1498.204303,-0.000037
1498.686506,-0.000225
1499.168709,-0.000092
1499.650912,0.000143
1500.133115,0.000166
1500.615318,0.000170
1501.097521,0.000245
1501.579723,0.000234
1502.061926,0.000219
1502.544129,0.000274
1503.026332,0.000260
1503.508535,0.000165
1503.990738,0.000069
1504.472941,0.000007
1504.955144,-0.000159
1505.437346,-0.000484
1505.919549,-0.000550
1506.401752,-0.000445
1506.883955,-0.000412
1507.366158,-0.000059
1507.848361,0.000182
1508.330564,0.000142
1508.812766,0.000235
1509.294969,0.000371
1509.777172,0.000360
1510.259375,0.000343
1510.741578,0.000340
1511.223781,0.000363
1511.705984,0.000342
1512.188187,0.000217
1512.670389,0.000282
1513.152592,0.000457
1513.634795,0.000463
1514.116998,0.000376
1514.599201,0.000256
1515.081404,0.000197
1515.563607,0.000200
1516.045809,0.000090
1516.528012,-0.000018
1517.010215,-0.000024
1517.492418,-0.000006
1517.974621,0.000163
1518.456824,0.000323
1518.939027,0.000288
1519.421230,0.000178
1519.903432,0.000049
1520.385635,-0.000009
1520.867838,-0.000060
1521.350041,-0.000129
1521.832244,0.000143
1522.314447,0.000276
1522.796650,0.000177
1523.278852,0.000378
1523.761055,0.000550
1524.243258,0.000416
1524.725461,0.000285
1525.207664,0.000191
1525.689867,0.000135
1526.172070,0.000255
1526.654272,0.000337
1527.136475,0.000320
1527.618678,0.000328
1528.100881,0.000291
1528.583084,0.000244
1529.065287,0.000326
1529.547490,0.000463
1530.029693,0.000525
1530.511895,0.000494
1530.994098,0.000453
1531.476301,0.000391
1531.958504,0.000301
1532.440707,0.000226
1532.922910,0.000104
1533.405113,-0.000018
1533.887315,0.000020
1534.369518,0.000252
1534.851721,0.000471
1535.333924,0.000488
1535.816127,0.000419
1536.298330,0.000388
1536.780533,0.000363
1537.262736,0.000325
1537.744938,0.000176
1538.227141,-0.000129
1538.709344,-0.000473
1539.191547,-0.000465
1539.673750,-0.000150
1540.155953,-0.000124
1540.638156,-0.000039
1541.120358,0.000181
1541.602561,0.000053
1542.084764,-0.000145
1542.566967,0.000184
1543.049170,0.000529
1543.531373,0.000562
1544.013576,0.000527
1544.495779,0.000509
1544.977981,0.000467
1545.460184,0.000567
1545.942387,0.000783
1546.424590,0.000901
1546.906793,0.000908
1547.388996,0.000921
1547.871199,0.000930
1548.353401,0.000875
1548.835604,0.000840
1549.317807,0.000880
1549.800010,0.000958
1550.282213,0.001065
1550.764416,0.001167
1551.246619,0.001247
1551.728822,0.001346
1552.211024,0.001426
1552.693227,0.001496
1553.175430,0.001529
1553.657633,0.001412
1554.139836,0.001341
1554.622039,0.001558
1555.104242,0.001890
1555.586444,0.002096
1556.068647,0.002085
1556.550850,0.001991
1557.033053,0.001842
1557.515256,0.001635
1557.997459,0.001741
1558.479662,0.002093
1558.961864,0.002511
1559.444067,0.002749
1559.926270,0.002748
1560.408473,0.003297
1560.890676,0.004068
1561.372879,0.004361
1561.855082,0.004608
1562.337285,0.004916
1562.819487,0.005118
1563.301690,0.005344
1563.783893,0.005658
1564.266096,0.006024
1564.748299,0.006407
1565.230502,0.006809
1565.712705,0.007235
1566.194907,0.007693
1566.677110,0.008236
1567.159313,0.008730
1567.641516,0.009110
1568.123719,0.009557
1568.605922,0.010112
1569.088125,0.010708
1569.570328,0.011326
1570.052530,0.012070
1570.534733,0.013021
1571.016936,0.014019
1571.499139,0.014961
1571.981342,0.015700
1572.463545,0.016324
1572.945748,0.017276
1573.427950,0.018469
1573.910153,0.019471
1574.392356,0.020261
1574.874559,0.021162
1575.356762,0.022401
1575.838965,0.023656
1576.321168,0.025091
1576.803371,0.026999
1577.285573,0.028735
1577.767776,0.030436
1578.249979,0.032042
1578.732182,0.033269
1579.214385,0.034709
1579.696588,0.036849
1580.178791,0.039087
1580.660993,0.040771
1581.143196,0.042390
1581.625399,0.044783
1582.107602,0.047458
1582.589805,0.049276
1583.072008,0.050538
1583.554211,0.052575
1584.036413,0.055684
1584.518616,0.058677
1585.000819,0.060566
1585.483022,0.062311
1585.965225,0.065744
1586.447428,0.070052
1586.929631,0.072210
1587.411834,0.072564
1587.894036,0.074642
1588.376239,0.079045
1588.858442,0.082596
1589.340645,0.083789
1589.822848,0.085807
1590.305051,0.091186
1590.787254,0.096414
1591.269456,0.096910
1591.751659,0.096000
1592.233862,0.099959
1592.716065,0.105474
1593.198268,0.105927
1593.680471,0.105359
1594.162674,0.110507
1594.644877,0.117680
1595.127079,0.118601
1595.609282,0.115045
1596.091485,0.116292
1596.573688,0.121556
1597.055891,0.121044
1597.538094,0.117835
1598.020297,0.122258
1598.502499,0.130664
1598.984702,0.131623
1599.466905,0.125510
1599.949108,0.123556
1600.431311,0.126631
1600.913514,0.124885
1601.395717,0.121550
1601.877920,0.127210
1602.360122,0.135454
1602.842325,0.130986
1603.324528,0.118909
1603.806731,0.116912
1604.288934,0.121292
1604.771137,0.119007
1605.253340,0.118827
1605.735542,0.127705
1606.217745,0.125462
1606.699948,0.107634
1607.182151,0.099638
1607.664354,0.106188
1608.146557,0.115245
1608.628760,0.117231
1609.110963,0.105568
1609.593165,0.093812
1610.075368,0.091366
1610.557571,0.095514
1611.039774,0.103394
1611.521977,0.097520
1612.004180,0.079585
1612.486383,0.076725
1612.968585,0.089312
1613.450788,0.087162
1613.932991,0.071035
1614.415194,0.072054
1614.897397,0.078162
1615.379600,0.069699
1615.861803,0.063240
1616.344005,0.058126
1616.826208,0.048383
1617.308411,0.047879
1617.790614,0.053505
1618.272817,0.061344
1618.755020,0.071637
1619.237223,0.083588
1619.719426,0.092983
1620.201628,0.098565
1620.683831,0.108709
1621.166034,0.119734
1621.648237,0.122784
1622.130440,0.127188
1622.612643,0.139407
1623.094846,0.146560
1623.577048,0.148315
1624.059251,0.157998
1624.541454,0.162339
1625.023657,0.155746
1625.505860,0.160434
1625.988063,0.171859
1626.470266,0.165442
1626.952469,0.163484
1627.434671,0.176802
1627.916874,0.171646
1628.399077,0.164294
1628.881280,0.176410
1629.363483,0.172790
1629.845686,0.160925
1630.327889,0.170020
1630.810091,0.168524
1631.292294,0.154365
1631.774497,0.160322
1632.256700,0.158634
1632.738903,0.143844
1633.221106,0.148050
1633.703309,0.145470
1634.185512,0.130101
1634.667714,0.132355
1635.149917,0.129821
1635.632120,0.118107
1636.114323,0.121858
1636.596526,0.111969
1637.078729,0.100230
1637.560932,0.101348
1638.043134,0.093551
1638.525337,0.088770
1639.007540,0.090534
1639.489743,0.081730
1639.971946,0.078665
1640.454149,0.076316
1640.936352,0.065779
1641.418555,0.063299
1641.900757,0.058611
1642.382960,0.052038
1642.865163,0.051094
1643.347366,0.045233
1643.829569,0.041779
1644.311772,0.040022
1644.793975,0.034931
1645.276177,0.033932
1645.758380,0.031625
1646.240583,0.027594
1646.722786,0.024957
1647.204989,0.021129
1647.687192,0.019597
1648.169395,0.018171
1648.651597,0.016360
1649.133800,0.015224
1649.616003,0.013411
1650.098206,0.012377
1650.580409,0.011244
1651.062612,0.010025
1651.544815,0.009059
1652.027018,0.007372
1652.509220,0.006096
1652.991423,0.005326
1653.473626,0.004977
1653.955829,0.005203
1654.438032,0.005290
1654.920235,0.005338
1655.402438,0.005168
1655.884640,0.004877
1656.366843,0.004632
1656.849046,0.004484
1657.331249,0.004343
1657.813452,0.004206
1658.295655,0.004139
1658.777858,0.004009
1659.260061,0.003823
1659.742263,0.003658
1660.224466,0.003611
1660.706669,0.003606
1661.188872,0.003519
1661.671075,0.003395
1662.153278,0.003226
1662.635481,0.003070
1663.117683,0.003129
1663.599886,0.003342
1664.082089,0.003406
1664.564292,0.003355
1665.046495,0.003274
1665.528698,0.003159
1666.010901,0.003140
1666.493104,0.003148
1666.975306,0.003112
1667.457509,0.003100
1667.939712,0.003047
1668.421915,0.002925
1668.904118,0.002739
1669.386321,0.002677
1669.868524,0.002920
1670.350726,0.003140
1670.832929,0.003185
1671.315132,0.003115
1671.797335,0.003125
1672.279538,0.003263
1672.761741,0.003317
1673.243944,0.003321
1673.726146,0.003313
1674.208349,0.003277
1674.690552,0.003155
1675.172755,0.002936
1675.654958,0.003091
1676.137161,0.003484
1676.619364,0.003643
1677.101567,0.003692
1677.583769,0.003813
1678.065972,0.003951
1678.548175,0.003949
1679.030378,0.003931
1679.512581,0.003970
1679.994784,0.003936
1680.476987,0.003929
1680.959189,0.004007
1681.441392,0.004044
1681.923595,0.003990
1682.405798,0.003870
1682.888001,0.003715
1683.370204,0.003537
1683.852407,0.003396
1684.334610,0.003392
1684.816812,0.003611
1685.299015,0.003958
1685.781218,0.004136
1686.263421,0.004119
1686.745624,0.004024
1687.227827,0.003961
1687.710030,0.003840
1688.192232,0.003646
1688.674435,0.003499
1689.156638,0.003443
1689.638841,0.003382
1690.121044,0.003279
1690.603247,0.003236
1691.085450,0.003226
1691.567653,0.003141
1692.049855,0.002968
1692.532058,0.002783
1693.014261,0.002596
1693.496464,0.002316
1693.978667,0.002034
1694.460870,0.001843
1694.943073,0.001618
1695.425275,0.001326
1695.907478,0.001379
1696.389681,0.002065
1696.871884,0.002664
1697.354087,0.003290
1697.836290,0.004243
1698.318493,0.005279
1698.800696,0.006216
1699.282898,0.006303
1699.765101,0.004424
1700.247304,0.001603
1700.729507,0.000832
1701.211710,0.001351
1701.693913,0.001705
1702.176116,0.001762
1702.658318,0.001594
1703.140521,0.001479
1703.622724,0.001513
1704.104927,0.001539
1704.587130,0.001591
1705.069333,0.001867
1705.551536,0.002168
1706.033738,0.002274
1706.515941,0.002435
1706.998144,0.002770
1707.480347,0.003017
1707.962550,0.003199
1708.444753,0.003370
1708.926956,0.003451
1709.409159,0.003554
1709.891361,0.003660
1710.373564,0.003682
1710.855767,0.003801
1711.337970,0.003917
1711.820173,0.003900
1712.302376,0.003948
1712.784579,0.004023
1713.266781,0.003963
1713.748984,0.003834
1714.231187,0.003761
1714.713390,0.003711
1715.195593,0.003626
1715.677796,0.003600
1716.159999,0.003564
1716.642202,0.003435
1717.124404,0.003256
1717.606607,0.003157
1718.088810,0.003158
1718.571013,0.003079
1719.053216,0.003126
1719.535419,0.003272
1720.017622,0.003235
1720.499824,0.003145
1720.982027,0.003065
1721.464230,0.002940
1721.946433,0.002824
1722.428636,0.002732
1722.910839,0.002623
1723.393042,0.002484
1723.875245,0.002423
1724.357447,0.002405
1724.839650,0.002334
1725.321853,0.002265
1725.804056,0.002193
1726.286259,0.002094
1726.768462,0.001994
1727.250665,0.001949
1727.732867,0.001983
1728.215070,0.001972
1728.697273,0.001866
1729.179476,0.001734
1729.661679,0.001590
1730.143882,0.001563
1730.626085,0.001702
1731.108288,0.001796
1731.590490,0.001764
1732.072693,0.001673
1732.554896,0.001579
1733.037099,0.001475
1733.519302,0.001420
1734.001505,0.001426
1734.483708,0.001352
1734.965910,0.001518
1735.448113,0.001896
1735.930316,0.002054
1736.412519,0.002046
1736.894722,0.002040
1737.376925,0.002116
1737.859128,0.002187
1738.341330,0.002149
1738.823533,0.002082
1739.305736,0.001966
1739.787939,0.001865
1740.270142,0.002014
1740.752345,0.002169
1741.234548,0.002144
1741.716751,0.002149
1742.198953,0.002262
1742.681156,0.002268
1743.163359,0.002164
1743.645562,0.002214
1744.127765,0.002313
1744.609968,0.002273
1745.092171,0.002226
1745.574373,0.002165
1746.056576,0.002108
1746.538779,0.002171
1747.020982,0.002141
1747.503185,0.001961
1747.985388,0.001871
1748.467591,0.001844
1748.949794,0.001854
1749.431996,0.001956
1749.914199,0.002035
1750.396402,0.001987
1750.878605,0.001876
1751.360808,0.001902
1751.843011,0.002071
1752.325214,0.002190
1752.807416,0.002206
1753.289619,0.002145
1753.771822,0.002123
1754.254025,0.002131
1754.736228,0.002106
1755.218431,0.002079
1755.700634,0.002032
1756.182837,0.002025
1756.665039,0.002073
1757.147242,0.002119
1757.629445,0.002183
1758.111648,0.002157
1758.593851,0.002032
1759.076054,0.002012
1759.558257,0.002003
1760.040459,0.001830
1760.522662,0.001655
1761.004865,0.001566
1761.487068,0.001408
1761.969271,0.001275
1762.451474,0.001344
1762.933677,0.001380
1763.415880,0.001275
1763.898082,0.001179
1764.380285,0.001141
1764.862488,0.001052
1765.344691,0.000918
1765.826894,0.000851
1766.309097,0.000788
1766.791300,0.000699
1767.273502,0.000598
1767.755705,0.000485
1768.237908,0.000474
1768.720111,0.000473
1769.202314,0.000415
1769.684517,0.000390
1770.166720,0.000272
1770.648922,0.000064
1771.131125,-0.000103
1771.613328,-0.000123
1772.095531,-0.000054
1772.577734,-0.000112
1773.059937,-0.000040
1773.542140,0.000176
1774.024343,0.000143
1774.506545,0.000027
1774.988748,-0.000003
1775.470951,0.000023
1775.953154,0.000176
1776.435357,0.000241
1776.917560,0.000129
1777.399763,0.000066
1777.881965,0.000010
1778.364168,-0.000062
1778.846371,-0.000044
1779.328574,0.000005
1779.810777,0.000076
1780.292980,0.000104
1780.775183,0.000042
1781.257386,0.000078
1781.739588,0.000176
1782.221791,0.000160
1782.703994,0.000095
1783.186197,0.000070
1783.668400,0.000141
1784.150603,0.000332
1784.632806,0.000388
1785.115008,0.000267
1785.597211,0.000355
1786.079414,0.000486
1786.561617,0.000330
1787.043820,0.000209
1787.526023,0.000310
1788.008226,0.000476
1788.490429,0.000623
1788.972631,0.000573
1789.454834,0.000444
1789.937037,0.000484
1790.419240,0.000427
1790.901443,0.000165
1791.383646,0.000033
1791.865849,0.000049
1792.348051,0.000087
1792.830254,0.000217
1793.312457,0.000315
1793.794660,0.000375
1794.276863,0.000456
1794.759066,0.000409
1795.241269,0.000294
1795.723471,0.000254
1796.205674,0.000493
1796.687877,0.000923
1797.170080,0.000798
1797.652283,0.000344
1798.134486,0.000452
1798.616689,0.000670
1799.098892,0.000420
1799.581094,0.000120
1800.063297,0.000263
1800.545500,0.000799
1801.027703,0.000945
1801.509906,0.000428
1801.992109,0.000269
1802.474312,0.000613
1802.956514,0.000645
1803.438717,0.000465
1803.920920,0.000584
1804.403123,0.001202
1804.885326,0.001718
1805.367529,0.001257
1805.849732,0.000705
1806.331935,0.001057
1806.814137,0.001390
1807.296340,0.001097
1807.778543,0.000822
1808.260746,0.001312
1808.742949,0.002086
1809.225152,0.001730
1809.707355,0.000790
1810.189557,0.000764
1810.671760,0.001255
1811.153963,0.001274
1811.636166,0.000951
1812.118369,0.001424
1812.600572,0.002521
1813.082775,0.002282
1813.564978,0.001096
1814.047180,0.000925
1814.529383,0.001638
1815.011586,0.001916
1815.493789,0.001407
1815.975992,0.001678
1816.458195,0.003075
1816.940398,0.002991
1817.422600,0.001456
1817.904803,0.001069
1818.387006,0.001914
1818.869209,0.002494
1819.351412,0.002017
1819.833615,0.002092
1820.315818,0.003695
1820.798021,0.003693
1821.280223,0.001776
1821.762426,0.001140
1822.244629,0.002048
1822.726832,0.002955
1823.209035,0.002594
1823.691238,0.002632
1824.173441,0.004452
1824.655643,0.004275
1825.137846,0.001857
1825.620049,0.001157
1826.102252,0.002336
1826.584455,0.003663
1827.066658,0.003430
1827.548861,0.003442
1828.031063,0.005418
1828.513266,0.004797
1828.995469,0.001922
1829.477672,0.001228
1829.959875,0.002465
1830.442078,0.004112
1830.924281,0.004026
1831.406484,0.004382
1831.888686,0.006320
1832.370889,0.004870
1832.853092,0.001900
1833.335295,0.001623
1833.817498,0.003207
1834.299701,0.005029
1834.781904,0.004978
1835.264106,0.005732
1835.746309,0.007117
1836.228512,0.004465
1836.710715,0.001741
1837.192918,0.002009
1837.675121,0.004005
1838.157324,0.005955
1838.639527,0.005997
1839.121729,0.007312
1839.603932,0.007456
1840.086135,0.003624
1840.568338,0.001706
1841.050541,0.002552
1841.532744,0.004825
1842.014947,0.006676
1842.497149,0.007149
1842.979352,0.008559
1843.461555,0.006730
1843.943758,0.002536
1844.425961,0.001820
1844.908164,0.003522
1845.390367,0.006125
1845.872570,0.007732
1846.354772,0.008733
1846.836975,0.008663
1847.319178,0.004657
1847.801381,0.001733
1848.283584,0.002230
1848.765787,0.004319
1849.247990,0.007115
1849.730192,0.008769
1850.212395,0.009490
1850.694598,0.006875
1851.176801,0.002569
1851.659004,0.001679
1852.141207,0.002942
1852.623410,0.005443
1853.105613,0.008239
1853.587815,0.009779
1854.070018,0.008361
1854.552221,0.003891
1855.034424,0.001503
1855.516627,0.002131
1855.998830,0.003873
1856.481033,0.006653
1856.963235,0.009137
1857.445438,0.008955
1857.927641,0.005053
1858.409844,0.001669
1858.892047,0.001568
1859.374250,0.002700
1859.856453,0.004805
1860.338655,0.007815
1860.820858,0.008783
1861.303061,0.005595
1861.785264,0.001812
1862.267467,0.001046
1862.749670,0.001818
1863.231873,0.003201
1863.714076,0.005783
1864.196278,0.007487
1864.678481,0.005424
1865.160684,0.001846
1865.642887,0.000625
1866.125090,0.001015
1866.607293,0.001702
1867.089496,0.003394
1867.571698,0.005167
1868.053901,0.004187
1868.536104,0.001326
1869.018307,0.000062
1869.500510,0.000160
1869.982713,0.000439
1870.464916,0.001152
1870.947119,0.002249
1871.429321,0.002267
1871.911524,0.000986
1872.393727,0.000379
1872.875930,0.000618
1873.358133,0.000875
1873.840336,0.001386
1874.322539,0.002418
1874.804741,0.003933
1875.286944,0.006431
1875.769147,0.008738
1876.251350,0.006838
1876.733553,0.002318
1877.215756,0.000337
1877.697959,0.000151
1878.180162,-0.000047
1878.662364,-0.000130
1879.144567,-0.000128
1879.626770,0.000124
1880.108973,0.000497
1880.591176,0.001394
1881.073379,0.002384
1881.555582,0.001865
1882.037784,0.000551
1882.519987,0.000424
1883.002190,0.001114
1883.484393,0.001958
1883.966596,0.004246
1884.448799,0.006100
1884.931002,0.004108
1885.413204,0.001241
1885.895407,0.001156
1886.377610,0.002065
1886.859813,0.003671
1887.342016,0.007476
1887.824219,0.008871
1888.306422,0.004760
1888.788625,0.001454
1889.270827,0.002060
1889.753030,0.003244
1890.235233,0.006156
1890.717436,0.010735
1891.199639,0.009981
1891.681842,0.004222
1892.164045,0.001828
1892.646247,0.002922
1893.128450,0.004610
1893.610653,0.009239
1894.092856,0.013047
1894.575059,0.009182
1895.057262,0.003314
1895.539465,0.002615
1896.021668,0.004084
1896.503870,0.007195
1896.986073,0.012867
1897.468276,0.013200
1897.950479,0.006647
1898.432682,0.002832
1898.914885,0.003657
1899.397088,0.005821
1899.879290,0.010834
1900.361493,0.014465
1900.843696,0.010214
1901.325899,0.004346
1901.808102,0.003349
1902.290305,0.004859
1902.772508,0.008788
1903.254711,0.013783
1903.736913,0.012518
1904.219116,0.006410
1904.701319,0.003499
1905.183522,0.004213
1905.665725,0.007248
1906.147928,0.012267
1906.630131,0.013136
1907.112333,0.008019
1907.594536,0.003967
1908.076739,0.003709
1908.558942,0.006056
1909.041145,0.010605
1909.523348,0.012573
1910.005551,0.008921
1910.487754,0.004782
1910.969956,0.003638
1911.452159,0.005308
1911.934362,0.009362
1912.416565,0.011472
1912.898768,0.008744
1913.380971,0.005075
1913.863174,0.003458
1914.345376,0.004592
1914.827579,0.008263
1915.309782,0.010215
1915.791985,0.008051
1916.274188,0.004947
1916.756391,0.003153
1917.238594,0.003827
1917.720796,0.006889
1918.202999,0.008323
1918.685202,0.006573
1919.167405,0.004576
1919.649608,0.003236
1920.131811,0.003920
1920.614014,0.006727
1921.096217,0.007525
1921.578419,0.005767
1922.060622,0.004131
1922.542825,0.002928
1923.025028,0.003670
1923.507231,0.006040
1923.989434,0.006056
1924.471637,0.004505
1924.953839,0.003420
1925.436042,0.002543
1925.918245,0.003545
1926.400448,0.005210
1926.882651,0.004516
1927.364854,0.003339
1927.847057,0.002668
1928.329260,0.002221
1928.811462,0.003456
1929.293665,0.004319
1929.775868,0.003340
1930.258071,0.002653
1930.740274,0.002070
1931.222477,0.001976
1931.704680,0.003105
1932.186882,0.003153
1932.669085,0.002376
1933.151288,0.002054
1933.633491,0.001642
1934.115694,0.002128
1934.597897,0.002813
1935.080100,0.002182
1935.562303,0.001708
1936.044505,0.001505
1936.526708,0.001324
1937.008911,0.001915
1937.491114,0.001970
1937.973317,0.001440
1938.455520,0.001284
1938.937723,0.001040
1939.419925,0.001191
1939.902128,0.001416
1940.384331,0.001042
1940.866534,0.000901
1941.348737,0.000845
1941.830940,0.000890
1942.313143,0.001148
1942.795346,0.000877
1943.277548,0.000702
1943.759751,0.000772
1944.241954,0.000684
1944.724157,0.000823
1945.206360,0.000728
1945.688563,0.000433
1946.170766,0.000456
1946.652968,0.000496
1947.135171,0.000575
1947.617374,0.000562
1948.099577,0.000372
1948.581780,0.000308
1949.063983,0.000290
1949.546186,0.000367
1950.028388,0.000436
1950.510591,0.000330
1950.992794,0.000303
1951.474997,0.000315
1951.957200,0.000297
1952.439403,0.000282
1952.921606,0.000232
1953.403809,0.000218
1953.886011,0.000203
1954.368214,0.000218
1954.850417,0.000271
1955.332620,0.000219
1955.814823,0.000149
1956.297026,0.000184
1956.779229,0.000206
1957.261431,0.000142
1957.743634,0.000102
1958.225837,0.000117
1958.708040,0.000130
1959.190243,0.000119
1959.672446,0.000079
1960.154649,0.000076
1960.636852,0.000097
1961.119054,0.000106
1961.601257,0.000140
1962.083460,0.000155
1962.565663,0.000160
1963.047866,0.000189
1963.530069,0.000155
1964.012272,0.000067
1964.494474,0.000043
1964.976677,0.000066
1965.458880,0.000099
1965.941083,0.000134
1966.423286,0.000111
1966.905489,0.000097
1967.387692,0.000110
1967.869895,0.000113
1968.352097,0.000141
1968.834300,0.000117
1969.316503,0.000058
1969.798706,0.000033
1970.280909,-0.000033
1970.763112,-0.000056
1971.245315,0.000048
1971.727517,0.000135
1972.209720,0.000095
1972.691923,0.000017
1973.174126,0.000075
1973.656329,0.000171
1974.138532,0.000129
1974.620735,0.000091
1975.102938,0.000099
1975.585140,0.000086
1976.067343,0.000095
1976.549546,0.000108
1977.031749,0.000151
1977.513952,0.000187
1977.996155,0.000151
1978.478358,0.000118
1978.960560,0.000119
1979.442763,0.000136
1979.924966,0.000121
1980.407169,0.000117
1980.889372,0.000165
1981.371575,0.000117
1981.853778,0.000023
1982.335980,0.000083
1982.818183,0.000176
1983.300386,0.000121
1983.782589,0.000056
1984.264792,0.000110
1984.746995,0.000187
1985.229198,0.000174
1985.711401,0.000100
1986.193603,0.000120
1986.675806,0.000169
1987.158009,0.000109
1987.640212,0.000067
1988.122415,0.000042
1988.604618,0.000028
1989.086821,0.000096
1989.569023,0.000118
1990.051226,0.000109
1990.533429,0.000160
1991.015632,0.000187
1991.497835,0.000117
1991.980038,0.000040
1992.462241,0.000056
1992.944444,0.000063
1993.426646,0.000059
1993.908849,0.000104
1994.391052,0.000127
1994.873255,0.000159
1995.355458,0.000174
1995.837661,0.000127
1996.319864,0.000126
1996.802066,0.000129
1997.284269,0.000082
1997.766472,0.000078
1998.248675,0.000126
1998.730878,0.000166
1999.213081,0.000177
1999.695284,0.000162
2000.177487,0.000164
2000.659689,0.000160
2001.141892,0.000118
2001.624095,0.000119
2002.106298,0.000135
2002.588501,0.000113
2003.070704,0.000108
2003.552907,0.000078
2004.035109,0.000040
2004.517312,0.000069
2004.999515,0.000070
2005.481718,0.000002
2005.963921,-0.000020
2006.446124,0.000030
2006.928327,0.000077
2007.410529,0.000119
2007.892732,0.000117
2008.374935,0.000069
2008.857138,0.000065
2009.339341,0.000036
2009.821544,-0.000003
2010.303747,0.000053
2010.785950,0.000089
2011.268152,0.000074
2011.750355,0.000084
2012.232558,0.000092
2012.714761,0.000074
2013.196964,0.000066
2013.679167,0.000126
2014.161370,0.000180
2014.643572,0.000117
2015.125775,0.000046
2015.607978,0.000069
2016.090181,0.000097
2016.572384,0.000066
2017.054587,0.000047
2017.536790,0.000072
2018.018993,0.000092
2018.501195,0.000117
2018.983398,0.000162
2019.465601,0.000133
2019.947804,0.000059
2020.430007,0.000035
2020.912210,0.000029
2021.394413,0.000058
2021.876615,0.000050
2022.358818,-0.000017
2022.841021,0.000029
2023.323224,0.000111
2023.805427,0.000114
2024.287630,0.000100
2024.769833,0.000072
2025.252036,0.000041
2025.734238,0.000047
2026.216441,0.000108
2026.698644,0.000150
2027.180847,0.000138
2027.663050,0.000123
2028.145253,0.000082
2028.627456,0.000056
2029.109658,0.000025
2029.591861,-0.000041
2030.074064,0.000011
2030.556267,0.000068
2031.038470,0.000031
2031.520673,0.000054
2032.002876,0.000076
2032.485079,0.000077
2032.967281,0.000095
2033.449484,0.000044
2033.931687,-0.000002
2034.413890,0.000024
2034.896093,0.000068
2035.378296,0.000097
2035.860499,0.000115
2036.342701,0.000134
2036.824904,0.000143
2037.307107,0.000126
2037.789310,0.000040
2038.271513,-0.000031
2038.753716,0.000049
2039.235919,0.000142
2039.718121,0.000074
2040.200324,-0.000027
2040.682527,0.000004
2041.164730,0.000064
2041.646933,0.000087
2042.129136,0.000146
2042.611339,0.000134
2043.093542,0.000032
2043.575744,0.000012
2044.057947,0.000022
2044.540150,-0.000016
2045.022353,0.000001
2045.504556,0.000018
2045.986759,-0.000002
2046.468962,0.000056
2046.951164,0.000074
2047.433367,-0.000008
2047.915570,-0.000023
2048.397773,-0.000019
2048.879976,-0.000028
2049.362179,0.000010
2049.844382,0.000007
2050.326585,-0.000037
2050.808787,-0.000026
2051.290990,0.000028
2051.773193,0.000065
2052.255396,0.000055
2052.737599,0.000031
2053.219802,0.000033
2053.702005,0.000021
2054.184207,-0.000033
2054.666410,-0.000022
2055.148613,0.000069
2055.630816,0.000100
2056.113019,0.000106
2056.595222,0.000151
2057.077425,0.000140
2057.559628,0.000085
2058.041830,0.000093
2058.524033,0.000111
2059.006236,0.000038
2059.488439,-0.000046
2059.970642,-0.000059
2060.452845,-0.000047
2060.935048,-0.000047
2061.417250,-0.000034
2061.899453,-0.000002
2062.381656,0.000004
2062.863859,-0.000003
2063.346062,0.000012
2063.828265,0.000027
2064.310468,0.000034
2064.792671,0.000031
2065.274873,0.000040
2065.757076,0.000045
2066.239279,0.000036
2066.721482,0.000046
2067.203685,0.000024
2067.685888,-0.000040
2068.168091,-0.000027
2068.650293,0.000015
2069.132496,-0.000030
2069.614699,-0.000035
2070.096902,0.000026
2070.579105,0.000035
2071.061308,0.000041
2071.543511,0.000037
2072.025713,0.000050
2072.507916,0.000114
2072.990119,0.000110
2073.472322,0.000070
2073.954525,0.000039
2074.436728,-0.000030
2074.918931,-0.000051
2075.401134,0.000046
2075.883336,0.000134
2076.365539,0.000094
2076.847742,0.000029
2077.329945,0.000060
2077.812148,0.000106
2078.294351,0.000056
2078.776554,0.000015
2079.258756,0.000015
2079.740959,-0.000018
2080.223162,0.000032
2080.705365,0.000078
2081.187568,-0.000019
2081.669771,-0.000015
2082.151974,0.000076
2082.634177,0.000026
2083.116379,-0.000018
2083.598582,0.000029
2084.080785,0.000045
2084.562988,0.000042
2085.045191,0.000042
2085.527394,0.000025
2086.009597,-0.000003
2086.491799,-0.000014
2086.974002,0.000026
2087.456205,0.000041
2087.938408,0.000005
2088.420611,0.000019
2088.902814,0.000058
2089.385017,0.000010
2089.867220,-0.000039
2090.349422,0.000011
2090.831625,0.000032
2091.313828,0.000012
2091.796031,0.000040
2092.278234,0.000033
2092.760437,-0.000010
2093.242640,-0.000021
2093.724842,0.000003
2094.207045,0.000059
2094.689248,0.000097
2095.171451,0.000015
2095.653654,-0.000126
2096.135857,-0.000114
2096.618060,-0.000024
2097.100262,-0.000011
2097.582465,0.000052
2098.064668,0.000133
2098.546871,0.000113
2099.029074,0.000081
2099.511277,0.000068
2099.993480,0.000072
2100.475683,0.000057
2100.957885,-0.000030
2101.440088,-0.000055
2101.922291,-0.000040
2102.404494,-0.000057
2102.886697,0.000045
2103.368900,0.000172
2103.851103,0.000129
2104.333305,0.000017
2104.815508,-0.000031
2105.297711,-0.000044
2105.779914,-0.000050
2106.262117,-0.000028
2106.744320,0.000028
2107.226523,0.000115
2107.708726,0.000085
2108.190928,-0.000067
2108.673131,-0.000097
2109.155334,-0.000066
2109.637537,-0.000016
2110.119740,0.000108
2110.601943,0.000086
2111.084146,0.000013
2111.566348,0.000079
2112.048551,0.000095
2112.530754,0.000041
2113.012957,0.000016
2113.495160,0.000037
2113.977363,0.000080
2114.459566,0.000040
2114.941769,-0.000008
2115.423971,0.000055
2115.906174,0.000104
2116.388377,0.000049
2116.870580,-0.000019
2117.352783,-0.000058
2117.834986,-0.000077
2118.317189,-0.000019
2118.799391,0.000074
2119.281594,0.000143
2119.763797,0.000191
2120.246000,0.000132
2120.728203,-0.000021
2121.210406,-0.000141
2121.692609,-0.000155
2122.174812,-0.000061
2122.657014,-0.000008
2123.139217,0.000013
2123.621420,0.000089
2124.103623,0.000037
2124.585826,-0.000109
2125.068029,-0.000123
2125.550232,-0.000067
2126.032434,-0.000064
2126.514637,-0.000088
2126.996840,-0.000066
2127.479043,-0.000019
2127.961246,-0.000035
2128.443449,-0.000091
2128.925652,-0.000097
2129.407854,-0.000046
2129.890057,-0.000015
2130.372260,-0.000003
2130.854463,0.000019
2131.336666,0.000010
2131.818869,-0.000010
2132.301072,-0.000068
2132.783275,-0.000125
2133.265477,-0.000056
2133.747680,-0.000010
2134.229883,-0.000046
2134.712086,-0.000014
2135.194289,-0.000009
2135.676492,-0.000062
2136.158695,-0.000100
2136.640897,-0.000138
2137.123100,-0.000093
2137.605303,-0.000021
2138.087506,-0.000038
2138.569709,-0.000070
2139.051912,-0.000109
2139.534115,-0.000118
2140.016318,-0.000067
2140.498520,-0.000074
2140.980723,-0.000118
2141.462926,-0.000135
2141.945129,-0.000119
2142.427332,-0.000067
2142.909535,-0.000073
2143.391738,-0.000134
2143.873940,-0.000113
2144.356143,-0.000063
2144.838346,-0.000081
2145.320549,-0.000089
2145.802752,-0.000074
2146.284955,-0.000095
2146.767158,-0.000104
2147.249361,-0.000031
2147.731563,-0.000006
2148.213766,-0.000152
2148.695969,-0.000218
2149.178172,-0.000096
2149.660375,-0.000042
2150.142578,-0.000067
2150.624781,-0.000008
2151.106983,0.000073
2151.589186,-0.000007
2152.071389,-0.000164
2152.553592,-0.000176
2153.035795,-0.000113
2153.517998,-0.000076
2154.000201,-0.000046
2154.482404,-0.000005
2154.964606,0.000055
2155.446809,0.000055
2155.929012,0.000013
2156.411215,-0.000015
2156.893418,-0.000062
2157.375621,-0.000056
2157.857824,0.000027
2158.340026,0.000097
2158.822229,0.000095
2159.304432,0.000025
2159.786635,-0.000043
2160.268838,-0.000095
2160.751041,-0.000097
2161.233244,0.000021
2161.715446,0.000118
2162.197649,0.000078
2162.679852,0.000027
2163.162055,-0.000014
2163.644258,-0.000059
2164.126461,0.000011
2164.608664,0.000051
2165.090867,-0.000018
2165.573069,0.000051
2166.055272,0.000117
2166.537475,0.000008
2167.019678,-0.000045
2167.501881,0.000001
2167.984084,-0.000004
2168.466287,-0.000015
2168.948489,0.000099
2169.430692,0.000188
2169.912895,0.000086
2170.395098,-0.000044
2170.877301,-0.000056
2171.359504,0.000035
2171.841707,0.000125
2172.323910,0.000187
2172.806112,0.000218
2173.288315,0.000123
2173.770518,0.000021
2174.252721,-0.000021
2174.734924,-0.000057
2175.217127,-0.000039
2175.699330,0.000004
2176.181532,0.000093
2176.663735,0.000141
2177.145938,0.000065
2177.628141,0.000041
2178.110344,0.000073
2178.592547,0.000079
2179.074750,0.000092
2179.556953,0.000140
2180.039155,0.000174
2180.521358,0.000097
2181.003561,0.000016
2181.485764,0.000066
2181.967967,0.000119
2182.450170,0.000101
2182.932373,0.000159
2183.414575,0.000246
2183.896778,0.000194
2184.378981,0.000134
2184.861184,0.000126
2185.343387,0.000065
2185.825590,0.000069
2186.307793,0.000195
2186.789995,0.000243
2187.272198,0.000161
2187.754401,0.000133
2188.236604,0.000200
2188.718807,0.000234
2189.201010,0.000199
2189.683213,0.000181
2190.165416,0.000208
2190.647618,0.000181
2191.129821,0.000113
2191.612024,0.000127
2192.094227,0.000199
2192.576430,0.000225
2193.058633,0.000242
2193.540836,0.000320
2194.023038,0.000308
2194.505241,0.000168
2194.987444,0.000153
2195.469647,0.000220
2195.951850,0.000196
2196.434053,0.000256
2196.916256,0.000385
2197.398459,0.000391
2197.880661,0.000343
2198.362864,0.000302
2198.845067,0.000312
2199.327270,0.000381
2199.809473,0.000388
2200.291676,0.000358
2200.773879,0.000355
2201.256081,0.000385
2201.738284,0.000437
2202.220487,0.000420
2202.702690,0.000380
2203.184893,0.000420
2203.667096,0.000453
2204.149299,0.000477
2204.631502,0.000516
2205.113704,0.000494
2205.595907,0.000520
2206.078110,0.000582
2206.560313,0.000543
2207.042516,0.000514
2207.524719,0.000490
2208.006922,0.000448
2208.489124,0.000461
2208.971327,0.000440
2209.453530,0.000418
2209.935733,0.000441
2210.417936,0.000459
2210.900139,0.000528
2211.382342,0.000580
2211.864545,0.000559
2212.346747,0.000572
2212.828950,0.000585
2213.311153,0.000552
2213.793356,0.000539
2214.275559,0.000484
2214.757762,0.000374
2215.239965,0.000375
2215.722167,0.000471
2216.204370,0.000504
2216.686573,0.000478
2217.168776,0.000436
2217.650979,0.000409
2218.133182,0.000413
2218.615385,0.000387
2219.097587,0.000332
2219.579790,0.000310
2220.061993,0.000280
2220.544196,0.000189
2221.026399,0.000173
2221.508602,0.000261
2221.990805,0.000245
2222.473008,0.000139
2222.955210,0.000108
2223.437413,0.000125
2223.919616,0.000117
2224.401819,0.000151
2224.884022,0.000229
2225.366225,0.000216
2225.848428,0.000196
2226.330630,0.000259
2226.812833,0.000290
2227.295036,0.000302
2227.777239,0.000309
2228.259442,0.000300
2228.741645,0.000361
2229.223848,0.000452
2229.706051,0.000525
2230.188253,0.000563
2230.670456,0.000570
2231.152659,0.000603
2231.634862,0.000617
2232.117065,0.000636
2232.599268,0.000671
2233.081471,0.000650
2233.563673,0.000664
2234.045876,0.000701
2234.528079,0.000673
2235.010282,0.000657
2235.492485,0.000691
2235.974688,0.000726
2236.456891,0.000714
2236.939094,0.000708
2237.421296,0.000717
2237.903499,0.000676
2238.385702,0.000653
2238.867905,0.000665
2239.350108,0.000662
2239.832311,0.000646
2240.314514,0.000602
2240.796716,0.000571
2241.278919,0.000605
2241.761122,0.000647
2242.243325,0.000641
2242.725528,0.000589
2243.207731,0.000533
2243.689934,0.000550
2244.172137,0.000570
2244.654339,0.000512
2245.136542,0.000449
2245.618745,0.000393
2246.100948,0.000358
2246.583151,0.000371
2247.065354,0.000349
2247.547557,0.000293
2248.029759,0.000254
2248.511962,0.000257
2248.994165,0.000345
2249.476368,0.000404
2249.958571,0.000295
2250.440774,0.000169
2250.922977,0.000179
2251.405179,0.000224
2251.887382,0.000185
2252.369585,0.000116
2252.851788,0.000149
2253.333991,0.000176
2253.816194,0.000095
2254.298397,0.000049
2254.780600,0.000059
2255.262802,0.000007
2255.745005,-0.000087
2256.227208,-0.000079
2256.709411,-0.000027
2257.191614,-0.000072
2257.673817,-0.000089
2258.156020,-0.000052
2258.638222,-0.000029
2259.120425,-0.000026
2259.602628,-0.000084
2260.084831,-0.000124
2260.567034,-0.000080
2261.049237,-0.000028
2261.531440,-0.000074
2262.013643,-0.000132
2262.495845,-0.000095
2262.978048,-0.000106
2263.460251,-0.000141
2263.942454,-0.000083
2264.424657,-0.000076
2264.906860,-0.000119
2265.389063,-0.000059
2265.871265,-0.000002
2266.353468,-0.000106
2266.835671,-0.000168
2267.317874,-0.000041
2267.800077,0.000040
2268.282280,-0.000028
2268.764483,-0.000091
2269.246686,-0.000079
2269.728888,-0.000038
2270.211091,-0.000038
2270.693294,-0.000065
2271.175497,-0.000038
2271.657700,-0.000041
2272.139903,-0.000111
2272.622106,-0.000106
2273.104308,-0.000114
2273.586511,-0.000214
2274.068714,-0.000205
2274.550917,-0.000115
2275.033120,-0.000126
2275.515323,-0.000153
2275.997526,-0.000105
2276.479729,-0.000061
2276.961931,-0.000064
2277.444134,-0.000064
2277.926337,0.000005
2278.408540,0.000027
2278.890743,-0.000095
2279.372946,-0.000090
2279.855149,0.000088
2280.337351,0.000096
2280.819554,0.000018
2281.301757,0.000060
2281.783960,0.000053
2282.266163,0.000013
2282.748366,0.000046
2283.230569,0.000043
2283.712771,0.000033
2284.194974,0.000043
2284.677177,0.000014
2285.159380,-0.000024
2285.641583,-0.000079
2286.123786,-0.000061
2286.605989,0.000033
2287.088192,-0.000032
2287.570394,-0.000139
2288.052597,-0.000098
2288.534800,-0.000112
2289.017003,-0.000171
2289.499206,-0.000125
2289.981409,-0.000159
2290.463612,-0.000263
2290.945814,-0.000192
2291.428017,-0.000146
2291.910220,-0.000192
2292.392423,-0.000139
2292.874626,-0.000082
2293.356829,-0.000117
2293.839032,-0.000136
2294.321235,-0.000096
2294.803437,0.000006
2295.285640,0.000048
2295.767843,-0.000028
2296.250046,-0.000027
2296.732249,0.000074
2297.214452,0.000111
2297.696655,0.000109
2298.178857,0.000088
2298.661060,0.000069
2299.143263,0.000201
2299.625466,0.000269
2300.107669,0.000134
2300.589872,0.000088
2301.072075,0.000134
2301.554278,0.000165
2302.036480,0.000116
2302.518683,-0.000051
2303.000886,-0.000041
2303.483089,0.000158
2303.965292,0.000192
2304.447495,-0.000037
2304.929698,-0.000260
2305.411900,-0.000105
2305.894103,0.000220
2306.376306,0.000170
2306.858509,-0.000204
2307.340712,-0.000320
2307.822915,0.000008
2308.305118,0.000156
2308.787320,-0.000271
2309.269523,-0.000654
2309.751726,-0.000355
2310.233929,0.000187
2310.716132,-0.000021
2311.198335,-0.000498
2311.680538,-0.000205
2312.162741,0.000525
2312.644943,0.000513
2313.127146,-0.000160
2313.609349,-0.000087
2314.091552,0.000834
2314.573755,0.001025
2315.055958,0.000214
2315.538161,-0.000020
2316.020363,0.001037
2316.502566,0.001698
2316.984769,0.000847
2317.466972,0.000089
2317.949175,0.000984
2318.431378,0.001787
2318.913581,0.000931
2319.395784,-0.000073
2319.877986,0.000901
2320.360189,0.002139
2320.842392,0.001278
2321.324595,-0.000044
2321.806798,0.001110
2322.289001,0.002615
2322.771204,0.001659
2323.253406,0.000105
2323.735609,0.001267
2324.217812,0.002888
2324.700015,0.002001
2325.182218,0.000615
2325.664421,0.001946
2326.146624,0.003363
2326.628827,0.002085
2327.111029,0.000645
2327.593232,0.002049
2328.075435,0.003248
2328.557638,0.001634
2329.039841,0.000261
2329.522044,0.002077
2330.004247,0.002949
2330.486449,0.000883
2330.968652,0.000137
2331.450855,0.002488
2331.933058,0.002804
2332.415261,0.000498
2332.897464,0.000786
2333.379667,0.003053
2333.861870,0.002300
2334.344072,0.000133
2334.826275,0.001514
2335.308478,0.003290
2335.790681,0.001656
2336.272884,0.000098
2336.755087,0.002175
2337.237290,0.002904
2337.719492,0.000700
2338.201695,0.000878
2338.683898,0.003043
2339.166101,0.002052
2339.648304,0.000277
2340.130507,0.002133
2340.612710,0.003113
2341.094912,0.001235
2341.577115,0.001383
2342.059318,0.003453
2342.541521,0.002735
2343.023724,0.001358
2343.505927,0.003061
2343.988130,0.003806
2344.470333,0.002299
2344.952535,0.003037
2345.434738,0.004863
2345.916941,0.004223
2346.399144,0.004012
2346.881347,0.005878
2347.363550,0.006467
2347.845753,0.006183
2348.327955,0.006995
2348.810158,0.007707
2349.292361,0.007611
2349.774564,0.007009
2350.256767,0.006438
2350.738970,0.006387
2351.221173,0.005497
2351.703376,0.004210
2352.185578,0.004722
2352.667781,0.004527
2353.149984,0.002773
2353.632187,0.003183
2354.114390,0.003391
2354.596593,0.001438
2355.078796,0.001935
2355.560998,0.002671
2356.043201,0.000892
2356.525404,0.001448
2357.007607,0.002270
2357.489810,0.000585
2357.972013,0.001284
2358.454216,0.001891
2358.936419,0.000174
2359.418621,0.001207
2359.900824,0.001782
2360.383027,0.000175
2360.865230,0.001102
2361.347433,0.000766
2361.829636,-0.000534
2362.311839,0.000617
2362.794041,-0.000035
2363.276244,-0.000593
2363.758447,0.000210
2364.240650,-0.000993
2364.722853,-0.000702
2365.205056,-0.000365
2365.687259,-0.001419
2366.169462,-0.000685
2366.651664,-0.001061
2367.133867,-0.001324
2367.616070,-0.000743
2368.098273,-0.001391
2368.580476,-0.001065
2369.062679,-0.001114
2369.544882,-0.001274
2370.027084,-0.000817
2370.509287,-0.001157
2370.991490,-0.000894
2371.473693,-0.000803
2371.955896,-0.000903
2372.438099,-0.000625
2372.920302,-0.000710
2373.402504,-0.000521
2373.884707,-0.000416
2374.366910,-0.000323
2374.849113,-0.000134
2375.331316,-0.000134
2375.813519,-0.000024
2376.295722,-0.000022
2376.777925,0.000041
2377.260127,0.000128
2377.742330,0.000138
2378.224533,0.000190
2378.706736,0.000161
2379.188939,0.000143
2379.671142,0.000136
2380.153345,0.000121
2380.635547,0.000007
2381.117750,-0.000123
2381.599953,-0.000148
2382.082156,-0.000282
2382.564359,-0.000485
2383.046562,-0.000599
2383.528765,-0.000440
2384.010968,-0.000394
2384.493170,-0.000393
2384.975373,-0.000317
2385.457576,-0.000191
2385.939779,-0.000111
2386.421982,-0.000113
2386.904185,-0.000053
2387.386388,0.000029
2387.868590,0.000004
2388.350793,-0.000076
2388.832996,-0.000115
2389.315199,-0.000087
2389.797402,-0.000043
2390.279605,0.000012
2390.761808,0.000013
2391.244011,-0.000078
2391.726213,-0.000118
2392.208416,-0.000085
2392.690619,-0.000082
2393.172822,-0.000111
2393.655025,-0.000103
2394.137228,-0.000047
2394.619431,-0.000019
2395.101633,-0.000088
2395.583836,-0.000125
2396.066039,-0.000073
2396.548242,-0.000044
2397.030445,-0.000020
2397.512648,-0.000000
2397.994851,-0.000021
2398.477053,-0.000032
2398.959256,-0.000006
2399.441459,0.000017
2399.923662,0.000005
2400.405865,0.000004
2400.888068,0.000023
2401.370271,0.000015
2401.852474,-0.000025
2402.334676,-0.000049
2402.816879,-0.000006
2403.299082,0.000022
2403.781285,-0.000050
2404.263488,-0.000101
2404.745691,-0.000060
2405.227894,-0.000003
2405.710096,0.000009
2406.192299,-0.000040
2406.674502,-0.000092
2407.156705,-0.000110
2407.638908,-0.000065
2408.121111,0.000020
2408.603314,0.000044
2409.085517,0.000045
2409.567719,0.000018
2410.049922,-0.000019
2410.532125,0.000036
2411.014328,0.000027
2411.496531,-0.000022
2411.978734,0.000018
2412.460937,-0.000036
2412.943139,-0.000087
2413.425342,-0.000014
2413.907545,-0.000019
2414.389748,-0.000056
2414.871951,-0.000049
2415.354154,-0.000061
2415.836357,-0.000056
2416.318560,-0.000057
2416.800762,-0.000015
2417.282965,0.000056
2417.765168,0.000006
2418.247371,-0.000089
2418.729574,-0.000110
2419.211777,-0.000049
2419.693980,0.000011
2420.176182,-0.000008
2420.658385,-0.000055
2421.140588,-0.000123
2421.622791,-0.000176
2422.104994,-0.000142
2422.587197,-0.000108
2423.069400,-0.000146
2423.551603,-0.000108
2424.033805,0.000039
2424.516008,0.000015
2424.998211,-0.000122
2425.480414,-0.000064
2425.962617,0.000010
2426.444820,-0.000077
2426.927023,-0.000098
2427.409225,-0.000041
2427.891428,-0.000105
2428.373631,-0.000177
2428.855834,-0.000109
2429.338037,-0.000090
2429.820240,-0.000156
2430.302443,-0.000161
2430.784645,-0.000150
2431.266848,-0.000112
2431.749051,-0.000047
2432.231254,-0.000055
2432.713457,-0.000082
2433.195660,-0.000088
2433.677863,-0.000134
2434.160066,-0.000148
2434.642268,-0.000073
2435.124471,-0.000013
2435.606674,0.000005
2436.088877,0.000024
2436.571080,-0.000011
2437.053283,-0.000040
2437.535486,0.000021
2438.017688,0.000073
2438.499891,0.000080
2438.982094,0.000082
2439.464297,0.000064
2439.946500,-0.000008
2440.428703,-0.000093
2440.910906,-0.000099
2441.393109,-0.000027
2441.875311,0.000057
2442.357514,0.000034
2442.839717,-0.000031
2443.321920,0.000022
2443.804123,0.000009
2444.286326,-0.000079
2444.768529,-0.000015
2445.250731,0.000079
2445.732934,0.000077
2446.215137,0.000041
2446.697340,-0.000008
2447.179543,-0.000018
2447.661746,0.000033
2448.143949,0.000046
2448.626152,0.000047
2449.108354,0.000108
2449.590557,0.000144
2450.072760,0.000142
2450.554963,0.000087
2451.037166,-0.000033
2451.519369,-0.000041
2452.001572,0.000013
2452.483774,-0.000030
2452.965977,-0.000050
2453.448180,-0.000008
2453.930383,-0.000035
2454.412586,-0.000021
2454.894789,0.000102
2455.376992,0.000119
2455.859195,0.000082
2456.341397,0.000096
2456.823600,0.000020
2457.305803,-0.000032
2457.788006,0.000001
2458.270209,-0.000038
2458.752412,-0.000002
2459.234615,0.000067
2459.716817,-0.000037
2460.199020,-0.000095
2460.681223,-0.000079
2461.163426,-0.000105
2461.645629,-0.000032
2462.127832,0.000030
2462.610035,-0.000015
2463.092237,-0.000028
2463.574440,-0.000005
2464.056643,0.000001
2464.538846,-0.000011
2465.021049,0.000027
2465.503252,0.000105
2465.985455,0.000088
2466.467658,0.000042
2466.949860,0.000062
2467.432063,0.000089
2467.914266,0.000104
2468.396469,0.000078
2468.878672,-0.000008
2469.360875,-0.000070
2469.843078,-0.000083
2470.325280,-0.000103
2470.807483,-0.000062
2471.289686,0.000055
2471.771889,0.000112
2472.254092,0.000144
2472.736295,0.000170
2473.218498,0.000124
2473.700701,0.000113
2474.182903,0.000098
2474.665106,0.000065
2475.147309,0.000136
2475.629512,0.000131
2476.111715,0.000049
2476.593918,0.000100
2477.076121,0.000130
2477.558323,0.000073
2478.040526,0.000089
2478.522729,0.000103
2479.004932,0.000053
2479.487135,0.000014
2479.969338,-0.000032
2480.451541,-0.000007
2480.933744,0.000106
2481.415946,0.000118
2481.898149,0.000112
2482.380352,0.000157
2482.862555,0.000141
2483.344758,0.000127
2483.826961,0.000114
2484.309164,0.000087
2484.791366,0.000076
2485.273569,0.000041
2485.755772,0.000035
2486.237975,0.000053
2486.720178,0.000021
2487.202381,-0.000016
2487.684584,0.000053
2488.166786,0.000124
2488.648989,0.000103
2489.131192,0.000128
2489.613395,0.000081
2490.095598,-0.000038
2490.577801,0.000017
2491.060004,0.000059
2491.542207,0.000001
2492.024409,0.000026
2492.506612,0.000078
2492.988815,0.000133
2493.471018,0.000186
2493.953221,0.000112
2494.435424,0.000040
2494.917627,0.000100
2495.399829,0.000076
2495.882032,-0.000011
2496.364235,0.000011
2496.846438,0.000026
2497.328641,0.000038
2497.810844,0.000051
2498.293047,0.000021
2498.775250,0.000065
2499.257452,0.000086
2499.739655,-0.000014
2500.221858,-0.000080
2500.704061,-0.000051
2501.186264,0.000015
2501.668467,0.000040
2502.150670,0.000005
2502.632872,-0.000030
2503.115075,-0.000023
2503.597278,0.000021
2504.079481,0.000077
2504.561684,0.000146
2505.043887,0.000155
2505.526090,0.000095
2506.008293,0.000097
2506.490495,0.000127
2506.972698,0.000087
2507.454901,0.000018
2507.937104,0.000050
2508.419307,0.000098
2508.901510,0.000006
2509.383713,-0.000029
2509.865915,0.000066
2510.348118,0.000106
2510.830321,0.000086
2511.312524,0.000070
2511.794727,0.000076
2512.276930,0.000060
2512.759133,0.000012
2513.241336,0.000007
2513.723538,0.000037
2514.205741,0.000060
2514.687944,0.000063
2515.170147,0.000070
2515.652350,0.000059
2516.134553,-0.000039
2516.616756,-0.000083
2517.098958,0.000034
2517.581161,0.000122
2518.063364,0.000094
2518.545567,0.000072
2519.027770,0.000096
2519.509973,0.000131
2519.992176,0.000104
2520.474378,0.000015
2520.956581,-0.000038
2521.438784,-0.000034
2521.920987,-0.000007
2522.403190,0.000009
2522.885393,0.000034
2523.367596,0.000054
2523.849799,0.000024
2524.332001,0.000064
2524.814204,0.000128
2525.296407,0.000066
2525.778610,0.000018
2526.260813,0.000058
2526.743016,0.000100
2527.225219,0.000076
2527.707421,-0.000004
2528.189624,-0.000044
2528.671827,-0.000070
2529.154030,-0.000143
2529.636233,-0.000165
2530.118436,-0.000052
2530.600639,0.000055
2531.082842,0.000044
2531.565044,0.000033
2532.047247,0.000017
2532.529450,-0.000036
2533.011653,-0.000020
2533.493856,0.000026
2533.976059,0.000050
2534.458262,0.000064
2534.940464,0.000023
2535.422667,-0.000007
2535.904870,0.000058
2536.387073,0.000110
2536.869276,0.000115
2537.351479,0.000051
2537.833682,-0.000089
2538.315885,-0.000087
2538.798087,-0.000001
2539.280290,-0.000036
2539.762493,-0.000112
2540.244696,-0.000112
2540.726899,0.000013
2541.209102,0.000092
2541.691305,0.000056
2542.173507,0.000046
2542.655710,0.000004
2543.137913,-0.000057
2543.620116,-0.000065
2544.102319,-0.000045
2544.584522,0.000005
2545.066725,0.000035
2545.548928,0.000031
2546.031130,0.000033
2546.513333,0.000046
2546.995536,0.000084
2547.477739,0.000135
2547.959942,0.000105
2548.442145,0.000018
2548.924348,0.000003
2549.406550,0.000028
2549.888753,0.000013
2550.370956,-0.000043
2550.853159,-0.000064
2551.335362,-0.000048
2551.817565,-0.000093
2552.299768,-0.000114
2552.781970,-0.000073
2553.264173,-0.000073
2553.746376,-0.000109
2554.228579,-0.000097
2554.710782,0.000020
2555.192985,0.000113
2555.675188,0.000076
2556.157391,-0.000040
2556.639593,-0.000152
2557.121796,-0.000102
2557.603999,0.000076
2558.086202,0.000143
2558.568405,0.000096
2559.050608,0.000063
2559.532811,0.000062
2560.015013,0.000085
2560.497216,0.000130
2560.979419,0.000175
2561.461622,0.000167
2561.943825,0.000062
2562.426028,0.000001
2562.908231,0.000076
2563.390434,0.000088
2563.872636,0.000027
2564.354839,0.000038
2564.837042,0.000013
2565.319245,-0.000006
2565.801448,0.000078
2566.283651,0.000085
2566.765854,0.000006
2567.248056,-0.000015
2567.730259,0.000014
2568.212462,0.000033
2568.694665,0.000011
2569.176868,-0.000002
2569.659071,0.000024
2570.141274,0.000069
2570.623477,0.000110
2571.105679,0.000105
2571.587882,0.000091
2572.070085,0.000095
2572.552288,0.000069
2573.034491,0.000055
2573.516694,0.000059
2573.998897,0.000043
2574.481099,0.000040
2574.963302,0.000054
2575.445505,0.000084
2575.927708,0.000099
2576.409911,0.000099
2576.892114,0.000120
2577.374317,0.000092
2577.856520,0.000084
2578.338722,0.000156
2578.820925,0.000144
2579.303128,-0.000002
2579.785331,-0.000113
2580.267534,-0.000095
2580.749737,-0.000074
2581.231940,-0.000056
2581.714142,-0.000010
2582.196345,-0.000031
2582.678548,-0.000035
2583.160751,0.000030
2583.642954,0.000070
2584.125157,0.000022
2584.607360,-0.000105
2585.089562,-0.000153
2585.571765,-0.000079
2586.053968,-0.000029
2586.536171,0.000002
2587.018374,0.000081
2587.500577,0.000100
2587.982780,0.000055
2588.464983,0.000103
2588.947185,0.000199
2589.429388,0.000220
2589.911591,0.000187
2590.393794,0.000117
2590.875997,0.000032
2591.358200,0.000070
2591.840403,0.000153
2592.322605,0.000055
2592.804808,-0.000049
2593.287011,0.000015
2593.769214,0.000112
2594.251417,0.000166
2594.733620,0.000127
2595.215823,-0.000001
2595.698026,-0.000046
2596.180228,0.000015
2596.662431,-0.000018
2597.144634,-0.000028
2597.626837,0.000129
2598.109040,0.000144
2598.591243,0.000017
2599.073446,-0.000012
2599.555648,0.000027
2600.037851,0.000127
2600.520054,0.000162
2601.002257,0.000078
2601.484460,0.000054
2601.966663,0.000056
2602.448866,0.000012
2602.931069,-0.000011
2603.413271,0.000028
2603.895474,0.000140
2604.377677,0.000187
2604.859880,0.000058
2605.342083,-0.000063
2605.824286,-0.000043
2606.306489,0.000023
2606.788691,0.000051
2607.270894,0.000024
2607.753097,-0.000002
2608.235300,0.000006
2608.717503,0.000028
2609.199706,0.000043
2609.681909,0.000043
2610.164111,0.000018
2610.646314,-0.000066
2611.128517,-0.000051
2611.610720,0.000083
2612.092923,0.000071
2612.575126,0.000013
2613.057329,0.000072
2613.539532,0.000138
2614.021734,0.000071
2614.503937,-0.000063
2614.986140,-0.000002
2615.468343,0.000066
2615.950546,0.000013
2616.432749,0.000091
2616.914952,0.000161
2617.397154,0.000140
2617.879357,0.000137
2618.361560,0.000119
2618.843763,0.000130
2619.325966,0.000146
2619.808169,0.000109
2620.290372,0.000072
2620.772575,0.000070
2621.254777,0.000064
2621.736980,0.000045
2622.219183,0.000030
2622.701386,-0.000018
2623.183589,0.000037
2623.665792,0.000169
2624.147995,0.000109
2624.630197,-0.000004
2625.112400,0.000031
2625.594603,0.000075
2626.076806,0.000091
2626.559009,0.000133
2627.041212,0.000121
2627.523415,0.000024
2628.005618,-0.000032
2628.487820,-0.000004
2628.970023,0.000006
2629.452226,-0.000008
2629.934429,0.000053
2630.416632,0.000136
2630.898835,0.000111
2631.381038,0.000019
2631.863240,-0.000031
2632.345443,-0.000010
2632.827646,0.000029
2633.309849,0.000014
2633.792052,-0.000018
2634.274255,0.000030
2634.756458,0.000126
2635.238661,0.000156
2635.720863,0.000107
2636.203066,0.000066
2636.685269,0.000109
2637.167472,0.000184
2637.649675,0.000173
2638.131878,0.000123
2638.614081,0.000153
2639.096283,0.000239
2639.578486,0.000246
2640.060689,0.000167
2640.542892,0.000096
2641.025095,0.000023
2641.507298,0.000007
2641.989501,0.000087
2642.471703,0.000164
2642.953906,0.000205
2643.436109,0.000154
2643.918312,0.000027
2644.400515,-0.000036
2644.882718,-0.000034
2645.364921,-0.000069
2645.847124,-0.000101
2646.329326,-0.000008
2646.811529,0.000101
2647.293732,0.000125
2647.775935,0.000114
2648.258138,0.000062
2648.740341,0.000038
2649.222544,0.000067
2649.704746,0.000078
2650.186949,0.000076
2650.669152,0.000061
2651.151355,0.000049
2651.633558,0.000061
2652.115761,0.000077
2652.597964,0.000046
2653.080167,0.000019
2653.562369,0.000056
2654.044572,0.000037
2654.526775,0.000041
2655.008978,0.000104
2655.491181,0.000059
2655.973384,0.000010
2656.455587,0.000034
2656.937789,0.000041
2657.419992,0.000024
2657.902195,0.000033
2658.384398,0.000082
2658.866601,0.000096
2659.348804,0.000138
2659.831007,0.000173
2660.313210,0.000034
2660.795412,-0.000001
2661.277615,0.000158
2661.759818,0.000164
2662.242021,0.000092
2662.724224,0.000087
2663.206427,0.000040
2663.688630,0.000053
2664.170832,0.000148
2664.653035,0.000136
2665.135238,0.000081
2665.617441,0.000062
2666.099644,-0.000044
2666.581847,-0.000109
2667.064050,0.000029
2667.546253,0.000123
2668.028455,0.000074
2668.510658,0.000063
2668.992861,0.000109
2669.475064,0.000127
2669.957267,0.000075
2670.439470,0.000075
2670.921673,0.000179
2671.403875,0.000145
2671.886078,0.000003
2672.368281,-0.000036
2672.850484,-0.000049
2673.332687,-0.000011
2673.814890,0.000100
2674.297093,0.000085
2674.779295,-0.000004
2675.261498,0.000001
2675.743701,0.000019
2676.225904,0.000004
2676.708107,0.000025
2677.190310,0.000037
2677.672513,-0.000013
2678.154716,-0.000037
2678.636918,0.000070
2679.119121,0.000221
2679.601324,0.000178
2680.083527,0.000061
2680.565730,0.000110
2681.047933,0.000148
2681.530136,0.000081
2682.012338,0.000026
2682.494541,0.000033
2682.976744,0.000079
2683.458947,0.000089
2683.941150,0.000030
2684.423353,-0.000055
2684.905556,-0.000028
2685.387759,0.000047
2685.869961,-0.000009
2686.352164,-0.000058
2686.834367,0.000005
2687.316570,0.000111
2687.798773,0.000167
2688.280976,0.000075
2688.763179,-0.000029
2689.245381,0.000022
2689.727584,0.000096
2690.209787,0.000053
2690.691990,0.000018
2691.174193,0.000041
2691.656396,0.000043
2692.138599,0.000039
2692.620802,0.000068
2693.103004,0.000096
2693.585207,0.000023
2694.067410,-0.000028
2694.549613,0.000033
2695.031816,0.000001
2695.514019,-0.000066
2695.996222,0.000021
2696.478424,0.000091
2696.960627,0.000014
2697.442830,-0.000026
2697.925033,-0.000000
2698.407236,-0.000046
2698.889439,-0.000066
2699.371642,0.000025
2699.853844,0.000100
2700.336047,0.000106
2700.818250,0.000117
2701.300453,0.000109
2701.782656,0.000069
2702.264859,0.000140
2702.747062,0.000168
2703.229265,0.000043
2703.711467,0.000023
2704.193670,0.000023
2704.675873,-0.000051
2705.158076,-0.000021
2705.640279,0.000011
2706.122482,-0.000062
2706.604685,-0.000075
2707.086887,0.000047
2707.569090,0.000124
2708.051293,0.000068
2708.533496,0.000031
2709.015699,-0.000006
2709.497902,-0.000064
2709.980105,0.000002
2710.462308,0.000064
2710.944510,-0.000010
2711.426713,-0.000041
2711.908916,0.000001
2712.391119,0.000024
2712.873322,0.000053
2713.355525,0.000047
2713.837728,0.000018
2714.319930,0.000050
2714.802133,0.000042
2715.284336,0.000024
2715.766539,0.000071
2716.248742,0.000035
2716.730945,-0.000003
2717.213148,0.000025
2717.695351,-0.000016
2718.177553,-0.000048
2718.659756,-0.000064
2719.141959,-0.000104
2719.624162,-0.000081
2720.106365,-0.000047
2720.588568,-0.000014
2721.070771,0.000044
2721.552973,0.000061
2722.035176,0.000049
2722.517379,0.000022
2722.999582,-0.000034
2723.481785,-0.000090
2723.963988,-0.000077
2724.446191,0.000030
2724.928394,0.000097
2725.410596,0.000094
2725.892799,0.000126
2726.375002,0.000104
2726.857205,0.000028
2727.339408,0.000011
2727.821611,0.000036
2728.303814,0.000128
2728.786016,0.000166
2729.268219,0.000100
2729.750422,0.000103
2730.232625,0.000077
2730.714828,-0.000004
2731.197031,0.000028
2731.679234,0.000077
2732.161436,0.000032
2732.643639,0.000015
2733.125842,0.000073
2733.608045,0.000097
2734.090248,0.000049
2734.572451,0.000002
2735.054654,0.000080
2735.536857,0.000167
2736.019059,0.000074
2736.501262,0.000002
2736.983465,0.000012
2737.465668,0.000003
2737.947871,0.000062
2738.430074,0.000089
2738.912277,0.000038
2739.394479,0.000023
2739.876682,-0.000023
2740.358885,-0.000089
2740.841088,-0.000055
2741.323291,0.000015
2741.805494,0.000008
2742.287697,-0.000016
2742.769900,0.000032
2743.252102,0.000105
2743.734305,0.000067
2744.216508,-0.000020
2744.698711,0.000039
2745.180914,0.000162
2745.663117,0.000179
2746.145320,0.000084
2746.627522,-0.000038
2747.109725,-0.000088
2747.591928,-0.000124
2748.074131,-0.000147
2748.556334,-0.000072
2749.038537,0.000020
2749.520740,0.000021
2750.002943,-0.000043
2750.485145,-0.000004
2750.967348,0.000115
2751.449551,0.000077
2751.931754,-0.000014
2752.413957,0.000012
2752.896160,0.000042
2753.378363,0.000086
2753.860565,0.000142
2754.342768,0.000087
2754.824971,0.000030
2755.307174,0.000056
2755.789377,0.000053
2756.271580,0.000004
2756.753783,-0.000033
2757.235986,-0.000022
2757.718188,0.000030
2758.200391,0.000076
2758.682594,0.000110
2759.164797,0.000101
2759.647000,0.000064
2760.129203,0.000073
2760.611406,0.000087
2761.093608,0.000052
2761.575811,-0.000007
2762.058014,-0.000057
2762.540217,-0.000021
2763.022420,0.000033
2763.504623,-0.000007
2763.986826,-0.000054
2764.469028,-0.000051
2764.951231,-0.000005
2765.433434,0.000040
2765.915637,0.000032
2766.397840,-0.000045
2766.880043,-0.000110
2767.362246,0.000000
2767.844449,0.000039
2768.326651,-0.000088
2768.808854,-0.000026
2769.291057,0.000035
2769.773260,-0.000039
2770.255463,0.000019
2770.737666,0.000063
2771.219869,-0.000044
2771.702071,-0.000071
2772.184274,0.000082
2772.666477,0.000179
2773.148680,0.000110
2773.630883,0.000071
2774.113086,0.000136
2774.595289,0.000163
2775.077492,0.000080
2775.559694,0.000006
2776.041897,0.000005
2776.524100,0.000014
2777.006303,0.000037
2777.488506,0.000073
2777.970709,0.000062
2778.452912,0.000010
2778.935114,0.000012
2779.417317,0.000041
2779.899520,-0.000001
2780.381723,-0.000056
2780.863926,-0.000059
2781.346129,-0.000045
2781.828332,-0.000037
2782.310535,0.000024
2782.792737,0.000100
2783.274940,0.000064
2783.757143,0.000007
2784.239346,0.000034
2784.721549,0.000088
2785.203752,0.000069
2785.685955,0.000015
2786.168157,0.000039
2786.650360,0.000039
2787.132563,0.000014
2787.614766,0.000019
2788.096969,-0.000031
2788.579172,-0.000012
2789.061375,0.000083
2789.543577,0.000098
2790.025780,0.000074
2790.507983,0.000112
2790.990186,0.000166
2791.472389,0.000085
2791.954592,-0.000005
2792.436795,0.000009
2792.918998,-0.000003
2793.401200,0.000033
2793.883403,0.000112
2794.365606,0.000132
2794.847809,0.000157
2795.330012,0.000112
2795.812215,0.000026
2796.294418,0.000008
2796.776620,-0.000018
2797.258823,0.000006
2797.741026,0.000056
2798.223229,-0.000025
2798.705432,-0.000062
2799.187635,0.000022
2799.669838,0.000052
2800.152041,0.000053
2800.634243,0.000050
2801.116446,0.000051
2801.598649,0.000126
2802.080852,0.000168
2802.563055,0.000085
2803.045258,-0.000001
2803.527461,0.000026
2804.009663,0.000068
2804.491866,0.000037
2804.974069,0.000019
2805.456272,-0.000005
2805.938475,-0.000088
2806.420678,-0.000167
2806.902881,-0.000184
2807.385084,-0.000111
2807.867286,-0.000014
2808.349489,-0.000012
2808.831692,0.000001
2809.313895,0.000051
2809.796098,-0.000037
2810.278301,-0.000065
2810.760504,0.000065
2811.242706,0.000044
2811.724909,-0.000020
2812.207112,0.000024
2812.689315,-0.000025
2813.171518,-0.000070
2813.653721,-0.000004
2814.135924,0.000017
2814.618127,0.000000
2815.100329,0.000017
2815.582532,0.000034
2816.064735,0.000026
2816.546938,-0.000026
2817.029141,-0.000081
2817.511344,-0.000049
2817.993547,0.000025
2818.475749,0.000036
2818.957952,0.000011
2819.440155,0.000025
2819.922358,0.000081
2820.404561,0.000117
2820.886764,0.000102
2821.368967,0.000050
2821.851169,0.000007
2822.333372,0.000015
2822.815575,0.000051
2823.297778,0.000046
2823.779981,-0.000028
2824.262184,-0.000043
2824.744387,0.000063
2825.226590,0.000168
2825.708792,0.000175
2826.190995,0.000126
2826.673198,0.000117
2827.155401,0.000042
2827.637604,-0.000093
2828.119807,-0.000083
2828.602010,-0.000015
2829.084212,0.000026
2829.566415,0.000048
2830.048618,0.000019
2830.530821,0.000051
2831.013024,0.000114
2831.495227,0.000079
2831.977430,0.000035
2832.459633,0.000025
2832.941835,0.000022
2833.424038,0.000015
2833.906241,-0.000019
2834.388444,-0.000021
2834.870647,0.000052
2835.352850,0.000104
2835.835053,0.000071
2836.317255,0.000044
2836.799458,0.000058
2837.281661,0.000063
2837.763864,0.000105
2838.246067,0.000092
2838.728270,0.000049
2839.210473,0.000193
2839.692676,0.000256
2840.174878,0.000096
2840.657081,0.000035
2841.139284,0.000071
2841.621487,0.000060
2842.103690,0.000013
2842.585893,0.000039
2843.068096,0.000167
2843.550298,0.000140
2844.032501,-0.000002
2844.514704,0.000014
2844.996907,0.000053
2845.479110,0.000098
2845.961313,0.000219
2846.443516,0.000192
2846.925719,0.000164
2847.407921,0.000247
2847.890124,0.000216
2848.372327,0.000211
2848.854530,0.000233
2849.336733,0.000100
2849.818936,0.000054
2850.301139,0.000142
2850.783341,0.000144
2851.265544,0.000144
2851.747747,0.000185
2852.229950,0.000227
2852.712153,0.000328
2853.194356,0.000355
2853.676559,0.000281
2854.158761,0.000248
2854.640964,0.000266
2855.123167,0.000330
2855.605370,0.000420
2856.087573,0.000479
2856.569776,0.000474
2857.051979,0.000568
2857.534182,0.000758
2858.016384,0.000785
2858.498587,0.000802
2858.980790,0.000868
2859.462993,0.000792
2859.945196,0.000722
2860.427399,0.000787
2860.909602,0.000894
2861.391804,0.000993
2861.874007,0.001101
2862.356210,0.001145
2862.838413,0.001238
2863.320616,0.001428
2863.802819,0.001428
2864.285022,0.001369
2864.767225,0.001362
2865.249427,0.001412
2865.731630,0.001640
2866.213833,0.001815
2866.696036,0.001863
2867.178239,0.001759
2867.660442,0.001680
2868.142645,0.001886
2868.624847,0.002128
2869.107050,0.002287
2869.589253,0.002228
2870.071456,0.002119
2870.553659,0.002147
2871.035862,0.002085
2871.518065,0.002274
2872.000268,0.002646
2872.482470,0.002753
2872.964673,0.002863
2873.446876,0.003070
2873.929079,0.003021
2874.411282,0.002807
2874.893485,0.002991
2875.375688,0.003463
2875.857890,0.003681
2876.340093,0.003594
2876.822296,0.003590
2877.304499,0.003883
2877.786702,0.004093
2878.268905,0.004189
2878.751108,0.004226
2879.233311,0.004146
2879.715513,0.004362
2880.197716,0.004674
2880.679919,0.004780
2881.162122,0.004857
2881.644325,0.004902
2882.126528,0.005078
2882.608731,0.005334
2883.090933,0.005378
2883.573136,0.005258
2884.055339,0.005300
2884.537542,0.005698
2885.019745,0.005991
2885.501948,0.005848
2885.984151,0.005664
2886.466353,0.005772
2886.948556,0.006068
2887.430759,0.006106
2887.912962,0.005874
2888.395165,0.005987
2888.877368,0.006354
2889.359571,0.006399
2889.841774,0.006156
2890.323976,0.006017
2890.806179,0.006223
2891.288382,0.006502
2891.770585,0.006434
2892.252788,0.006232
2892.734991,0.006324
2893.217194,0.006577
2893.699396,0.006603
2894.181599,0.006348
2894.663802,0.006087
2895.146005,0.006063
2895.628208,0.006056
2896.110411,0.005807
2896.592614,0.005677
2897.074817,0.005763
2897.557019,0.005578
2898.039222,0.005254
2898.521425,0.005320
2899.003628,0.005507
2899.485831,0.005239
2899.968034,0.004814
2900.450237,0.004849
2900.932439,0.004935
2901.414642,0.004568
2901.896845,0.004336
2902.379048,0.004432
2902.861251,0.004344
2903.343454,0.004124
2903.825657,0.003933
2904.307860,0.003702
2904.790062,0.003448
2905.272265,0.003055
2905.754468,0.002521
2906.236671,0.002110
2906.718874,0.001955
2907.201077,0.002064
2907.683280,0.002452
2908.165482,0.003057
2908.647685,0.003736
2909.129888,0.004285
2909.612091,0.004806
2910.094294,0.005517
2910.576497,0.006104
2911.058700,0.006362
2911.540902,0.006820
2912.023105,0.007496
2912.505308,0.007789
2912.987511,0.008103
2913.469714,0.008666
2913.951917,0.008768
2914.434120,0.008868
2914.916323,0.009446
2915.398525,0.009646
2915.880728,0.009707
2916.362931,0.010219
2916.845134,0.010128
2917.327337,0.009847
2917.809540,0.010336
2918.291743,0.010276
2918.773945,0.010013
2919.256148,0.010192
2919.738351,0.009890
2920.220554,0.009761
2920.702757,0.009632
2921.184960,0.009242
2921.667163,0.009278
2922.149366,0.009021
2922.631568,0.008621
2923.113771,0.008419
2923.595974,0.008022
2924.078177,0.007638
2924.560380,0.007267
2925.042583,0.006877
2925.524786,0.006368
2926.006988,0.005858
2926.489191,0.005514
2926.971394,0.005079
2927.453597,0.004632
2927.935800,0.004235
2928.418003,0.003876
2928.900206,0.003503
2929.382409,0.003014
2929.864611,0.002561
2930.346814,0.002286
2930.829017,0.002154
2931.311220,0.001920
2931.793423,0.001620
2932.275626,0.001341
2932.757829,0.001006
2933.240031,0.000852
2933.722234,0.000785
2934.204437,0.000556
2934.686640,0.000346
2935.168843,0.000240
2935.651046,0.000222
2936.133249,0.000256
2936.615452,0.000151
2937.097654,0.000033
2937.579857,0.000129
2938.062060,0.000140
2938.544263,-0.000059
2939.026466,-0.000145
2939.508669,-0.000050
2939.990872,-0.000006
2940.473074,-0.000100
2940.955277,-0.000160
2941.437480,-0.000116
2941.919683,-0.000025
2942.401886,-0.000010
2942.884089,-0.000046
2943.366292,0.000044
2943.848494,0.000101
2944.330697,0.000045
2944.812900,0.000007
2945.295103,-0.000091
2945.777306,-0.000170
2946.259509,-0.000111
2946.741712,-0.000054
2947.223915,-0.000053
2947.706117,-0.000088
2948.188320,-0.000198
2948.670523,-0.000185
2949.152726,-0.000002
2949.634929,0.000040
2950.117132,-0.000005
2950.599335,0.000024
2951.081537,0.000052
2951.563740,0.000094
2952.045943,0.000036
2952.528146,-0.000065
2953.010349,0.000007
2953.492552,0.000064
2953.974755,0.000055
2954.456958,0.000036
2954.939160,-0.000094
2955.421363,-0.000207
2955.903566,-0.000198
2956.385769,-0.000155
2956.867972,-0.000191
2957.350175,-0.000159
2957.832378,0.000087
2958.314580,0.000173
2958.796783,0.000035
2959.278986,-0.000038
2959.761189,-0.000038
2960.243392,0.000024
2960.725595,0.000026
2961.207798,0.000012
2961.690001,0.000136
2962.172203,0.000156
2962.654406,0.000020
2963.136609,-0.000025
2963.618812,-0.000032
2964.101015,-0.000129
2964.583218,-0.000136
2965.065421,-0.000020
2965.547623,0.000031
2966.029826,0.000047
2966.512029,0.000002
2966.994232,-0.000075
2967.476435,-0.000103
2967.958638,-0.000116
2968.440841,0.000048
2968.923044,0.000233
2969.405246,0.000129
2969.887449,0.000001
2970.369652,0.000065
2970.851855,0.000177
2971.334058,0.000161
2971.816261,0.000050
2972.298464,-0.000009
2972.780666,-0.000075
2973.262869,-0.000109
2973.745072,-0.000052
2974.227275,-0.000030
2974.709478,0.000010
2975.191681,0.000138
2975.673884,0.000273
2976.156086,0.000220
2976.638289,0.000057
2977.120492,0.000098
2977.602695,0.000138
2978.084898,0.000112
2978.567101,0.000188
2979.049304,0.000085
2979.531507,-0.000032
2980.013709,0.000068
2980.495912,0.000068
2980.978115,0.000017
2981.460318,0.000044
2981.942521,-0.000001
2982.424724,-0.000031
2982.906927,-0.000004
2983.389129,-0.000060
2983.871332,-0.000086
2984.353535,-0.000048
2984.835738,-0.000084
2985.317941,-0.000085
2985.800144,-0.000044
2986.282347,-0.000059
2986.764550,-0.000009
2987.246752,0.000073
2987.728955,0.000053
2988.211158,0.000040
2988.693361,0.000076
2989.175564,0.000061
2989.657767,0.000064
2990.139970,0.000072
2990.622172,0.000013
2991.104375,0.000059
2991.586578,0.000155
2992.068781,0.000083
2992.550984,-0.000080
2993.033187,-0.000181
2993.515390,-0.000162
2993.997593,-0.000106
2994.479795,-0.000040
2994.961998,-0.000025
2995.444201,-0.000120
2995.926404,-0.000069
2996.408607,0.000005
2996.890810,-0.000019
2997.373013,0.000106
2997.855215,0.000138
2998.337418,0.000102
2998.819621,0.000173
2999.301824,0.000108
2999.784027,0.000022
3000.266230,-0.000003
3000.748433,-0.000017
3001.230635,0.000025
3001.712838,-0.000005
3002.195041,-0.000081
3002.677244,-0.000093
3003.159447,-0.000058
3003.641650,-0.000020
3004.123853,0.000003
3004.606056,-0.000006
3005.088258,-0.000021
3005.570461,0.000090
3006.052664,0.000174
3006.534867,0.000063
3007.017070,-0.000048
3007.499273,-0.000054
3007.981476,0.000008
3008.463678,0.000031
3008.945881,-0.000044
3009.428084,-0.000032
3009.910287,0.000061
3010.392490,0.000038
3010.874693,-0.000017
3011.356896,0.000015
3011.839099,0.000060
3012.321301,0.000110
3012.803504,0.000135
3013.285707,0.000079
3013.767910,0.000010
3014.250113,-0.000097
3014.732316,-0.000219
3015.214519,-0.000193
3015.696721,-0.000090
3016.178924,-0.000068
3016.661127,-0.000062
3017.143330,0.000003
3017.625533,0.000032
3018.107736,-0.000037
3018.589939,-0.000056
3019.072142,0.000024
3019.554344,0.000040
3020.036547,0.000005
3020.518750,0.000037
3021.000953,0.000138
3021.483156,0.000205
3021.965359,0.000108
3022.447562,-0.000044
3022.929764,-0.000111
3023.411967,-0.000117
3023.894170,-0.000030
3024.376373,0.000074
3024.858576,0.000077
3025.340779,0.000015
3025.822982,-0.000085
3026.305185,-0.000111
3026.787387,0.000011
3027.269590,0.000057
3027.751793,-0.000013
3028.233996,0.000002
3028.716199,0.000073
3029.198402,0.000145
3029.680605,0.000149
3030.162807,0.000002
3030.645010,-0.000123
3031.127213,-0.000075
3031.609416,0.000066
3032.091619,0.000144
3032.573822,0.000095
3033.056025,-0.000016
3033.538227,-0.000065
3034.020430,-0.000022
3034.502633,-0.000063
3034.984836,-0.000170
3035.467039,-0.000144
3035.949242,-0.000059
3036.431445,-0.000039
3036.913648,-0.000032
3037.395850,-0.000004
3037.878053,0.000006
3038.360256,-0.000039
3038.842459,-0.000134
3039.324662,-0.000138
3039.806865,-0.000012
3040.289068,0.000040
3040.771270,-0.000016
3041.253473,-0.000053
3041.735676,-0.000061
3042.217879,-0.000074
3042.700082,-0.000034
3043.182285,0.000033
3043.664488,-0.000004
3044.146691,-0.000054
3044.628893,-0.000033
3045.111096,-0.000022
3045.593299,0.000029
3046.075502,0.000111
3046.557705,0.000069
3047.039908,-0.000014
3047.522111,-0.000046
3048.004313,-0.000155
3048.486516,-0.000266
3048.968719,-0.000306
3049.450922,-0.000245
3049.933125,-0.000099
3050.415328,-0.000204
3050.897531,-0.000343
3051.379734,-0.000165
3051.861936,-0.000027
3052.344139,-0.000030
3052.826342,-0.000062
3053.308545,-0.000106
3053.790748,-0.000089
3054.272951,-0.000142
3054.755154,-0.000251
3055.237356,-0.000223
3055.719559,-0.000098
3056.201762,0.000007
3056.683965,-0.000007
3057.166168,-0.000123
3057.648371,-0.000133
3058.130574,-0.000113
3058.612777,-0.000182
3059.094979,-0.000101
3059.577182,0.000030
3060.059385,-0.000094
3060.541588,-0.000211
3061.023791,-0.000126
3061.505994,-0.000136
3061.988197,-0.000224
3062.470399,-0.000160
3062.952602,-0.000105
3063.434805,-0.000139
3063.917008,-0.000118
3064.399211,-0.000108
3064.881414,-0.000241
3065.363617,-0.000360
3065.845819,-0.000288
3066.328022,-0.000201
3066.810225,-0.000220
3067.292428,-0.000213
3067.774631,-0.000089
3068.256834,0.000016
3068.739037,-0.000061
3069.221240,-0.000126
3069.703442,-0.000104
3070.185645,-0.000179
3070.667848,-0.000217
3071.150051,-0.000148
3071.632254,-0.000145
3072.114457,-0.000181
3072.596660,-0.000157
3073.078862,-0.000101
3073.561065,-0.000123
3074.043268,-0.000210
3074.525471,-0.000228
3075.007674,-0.000188
3075.489877,-0.000197
3075.972080,-0.000265
3076.454283,-0.000268
3076.936485,-0.000209
3077.418688,-0.000238
3077.900891,-0.000203
3078.383094,-0.000042
3078.865297,0.000006
3079.347500,-0.000033
3079.829703,-0.000034
3080.311905,-0.000029
3080.794108,-0.000068
3081.276311,-0.000140
3081.758514,-0.000131
3082.240717,-0.000112
3082.722920,-0.000233
3083.205123,-0.000295
3083.687326,-0.000228
3084.169528,-0.000222
3084.651731,-0.000145
3085.133934,-0.000029
3085.616137,-0.000041
3086.098340,-0.000001
3086.580543,0.000060
3087.062746,0.000057
3087.544948,-0.000047
3088.027151,-0.000301
3088.509354,-0.000378
3088.991557,-0.000272
3089.473760,-0.000337
3089.955963,-0.000401
3090.438166,-0.000202
3090.920368,0.000007
3091.402571,-0.000063
3091.884774,-0.000226
3092.366977,-0.000212
3092.849180,-0.000113
3093.331383,-0.000176
3093.813586,-0.000306
3094.295789,-0.000262
3094.777991,-0.000216
3095.260194,-0.000226
3095.742397,-0.000164
3096.224600,-0.000136
3096.706803,-0.000087
3097.189006,-0.000157
3097.671209,-0.000396
3098.153411,-0.000380
3098.635614,-0.000235
3099.117817,-0.000157
3099.600020,-0.000042
3100.082223,-0.000122
3100.564426,-0.000339
3101.046629,-0.000400
3101.528832,-0.000281
3102.011034,-0.000070
3102.493237,-0.000012
3102.975440,-0.000140
3103.457643,-0.000240
3103.939846,-0.000254
3104.422049,-0.000224
3104.904252,-0.000246
3105.386454,-0.000288
3105.868657,-0.000226
3106.350860,-0.000086
3106.833063,0.000037
3107.315266,0.000033
3107.797469,-0.000061
3108.279672,-0.000130
3108.761875,-0.000187
3109.244077,-0.000130
3109.726280,-0.000032
3110.208483,-0.000110
3110.690686,-0.000214
3111.172889,-0.000239
3111.655092,-0.000230
3112.137295,-0.000145
3112.619497,-0.000085
3113.101700,-0.000110
3113.583903,-0.000135
3114.066106,-0.000154
3114.548309,-0.000180
3115.030512,-0.000196
3115.512715,-0.000242
3115.994918,-0.000320
3116.477120,-0.000355
3116.959323,-0.000331
3117.441526,-0.000170
3117.923729,0.000043
3118.405932,0.000016
3118.888135,-0.000094
3119.370338,-0.000107
3119.852540,-0.000121
3120.334743,-0.000086
3120.816946,-0.000100
3121.299149,-0.000177
3121.781352,-0.000200
3122.263555,-0.000199
3122.745758,-0.000108
3123.227960,-0.000044
3123.710163,-0.000095
3124.192366,-0.000117
3124.674569,-0.000170
3125.156772,-0.000196
3125.638975,-0.000075
3126.121178,-0.000051
3126.603381,-0.000168
3127.085583,-0.000163
3127.567786,-0.000117
3128.049989,-0.000205
3128.532192,-0.000337
3129.014395,-0.000388
3129.496598,-0.000333
3129.978801,-0.000298
3130.461003,-0.000282
3130.943206,-0.000187
3131.425409,-0.000113
3131.907612,-0.000123
3132.389815,-0.000140
3132.872018,-0.000122
3133.354221,-0.000118
3133.836424,-0.000129
3134.318626,-0.000132
3134.800829,-0.000161
3135.283032,-0.000140
3135.765235,-0.000061
3136.247438,0.000003
3136.729641,0.000047
3137.211844,0.000030
3137.694046,-0.000050
3138.176249,-0.000133
3138.658452,-0.000112
3139.140655,-0.000012
3139.622858,-0.000100
3140.105061,-0.000262
3140.587264,-0.000239
3141.069467,-0.000238
3141.551669,-0.000213
3142.033872,-0.000056
3142.516075,-0.000124
3142.998278,-0.000293
3143.480481,-0.000198
3143.962684,-0.000041
3144.444887,-0.000020
3144.927089,-0.000112
3145.409292,-0.000242
3145.891495,-0.000246
3146.373698,-0.000127
3146.855901,-0.000013
3147.338104,0.000037
3147.820307,0.000036
3148.302510,0.000024
3148.784712,-0.000121
3149.266915,-0.000325
3149.749118,-0.000266
3150.231321,-0.000112
3150.713524,-0.000150
3151.195727,-0.000247
3151.677930,-0.000291
3152.160132,-0.000294
3152.642335,-0.000177
3153.124538,-0.000010
3153.606741,0.000019
3154.088944,-0.000074
3154.571147,-0.000221
3155.053350,-0.000254
3155.535552,-0.000117
3156.017755,-0.000078
3156.499958,-0.000128
3156.982161,-0.000114
3157.464364,-0.000100
3157.946567,-0.000124
3158.428770,-0.000164
3158.910973,-0.000179
3159.393175,-0.000128
3159.875378,-0.000057
3160.357581,-0.000011
3160.839784,0.000098
3161.321987,0.000117
3161.804190,0.000003
3162.286393,-0.000022
3162.768595,-0.000113
3163.250798,-0.000170
3163.733001,-0.000080
3164.215204,-0.000155
3164.697407,-0.000185
3165.179610,0.000043
3165.661813,0.000190
3166.144016,0.000069
3166.626218,-0.000044
3167.108421,0.000028
3167.590624,0.000093
3168.072827,0.000170
3168.555030,0.000253
3169.037233,0.000134
3169.519436,-0.000063
3170.001638,-0.000125
3170.483841,-0.000112
3170.966044,-0.000082
3171.448247,-0.000020
3171.930450,-0.000025
3172.412653,-0.000127
3172.894856,-0.000220
3173.377059,-0.000128
3173.859261,0.000085
3174.341464,0.000038
3174.823667,-0.000155
3175.305870,-0.000184
3175.788073,-0.000072
3176.270276,0.000090
3176.752479,0.000083
3177.234681,-0.000043
3177.716884,-0.000060
3178.199087,-0.000035
3178.681290,-0.000029
3179.163493,-0.000065
3179.645696,-0.000080
3180.127899,0.000055
3180.610102,0.000155
3181.092304,0.000054
3181.574507,-0.000056
3182.056710,-0.000042
3182.538913,0.000053
3183.021116,0.000163
3183.503319,0.000220
3183.985522,0.000236
3184.467724,0.000196
3184.949927,0.000136
3185.432130,0.000133
3185.914333,0.000151
3186.396536,0.000211
3186.878739,0.000224
3187.360942,0.000073
3187.843144,-0.000021
3188.325347,0.000065
3188.807550,0.000149
3189.289753,0.000200
3189.771956,0.000198
3190.254159,0.000063
3190.736362,0.000011
3191.218565,0.000117
3191.700767,0.000096
3192.182970,0.000013
3192.665173,0.000116
3193.147376,0.000227
3193.629579,0.000215
3194.111782,0.000226
3194.593985,0.000191
3195.076187,0.000079
3195.558390,0.000076
3196.040593,0.000165
3196.522796,0.000166
3197.004999,0.000098
3197.487202,0.000143
3197.969405,0.000268
3198.451608,0.000278
3198.933810,0.000208
3199.416013,0.000248
3199.898216,0.000253
3200.380419,0.000067
3200.862622,-0.000014
3201.344825,0.000041
3201.827028,0.000066
3202.309230,0.000111
3202.791433,0.000183
3203.273636,0.000311
3203.755839,0.000345
3204.238042,0.000253
3204.720245,0.000227
3205.202448,0.000188
3205.684651,0.000103
3206.166853,0.000137
3206.649056,0.000325
3207.131259,0.000354
3207.613462,0.000142
3208.095665,0.000102
3208.577868,0.000286
3209.060071,0.000373
3209.542273,0.000297
3210.024476,0.000331
3210.506679,0.000491
3210.988882,0.000563
3211.471085,0.000614
3211.953288,0.000536
3212.435491,0.000309
3212.917693,0.000226
3213.399896,0.000211
3213.882099,0.000179
3214.364302,0.000243
3214.846505,0.000282
3215.328708,0.000263
3215.810911,0.000309
3216.293114,0.000300
3216.775316,0.000208
3217.257519,0.000232
3217.739722,0.000348
3218.221925,0.000337
3218.704128,0.000227
3219.186331,0.000218
3219.668534,0.000209
3220.150736,0.000201
3220.632939,0.000352
3221.115142,0.000425
3221.597345,0.000356
3222.079548,0.000324
3222.561751,0.000253
3223.043954,0.000215
3223.526157,0.000320
3224.008359,0.000316
3224.490562,0.000193
3224.972765,0.000156
3225.454968,0.000142
3225.937171,0.000204
3226.419374,0.000275
3226.901577,0.000218
3227.383779,0.000182
3227.865982,0.000153
3228.348185,0.000216
3228.830388,0.000350
3229.312591,0.000291
3229.794794,0.000187
3230.276997,0.000110
3230.759200,0.000059
3231.241402,0.000229
3231.723605,0.000325
3232.205808,0.000106
3232.688011,-0.000038
3233.170214,0.000043
3233.652417,0.000187
3234.134620,0.000314
3234.616822,0.000356
3235.099025,0.000391
3235.581228,0.000410
3236.063431,0.000407
3236.545634,0.000441
3237.027837,0.000339
3237.510040,0.000240
3237.992243,0.000336
3238.474445,0.000386
3238.956648,0.000356
3239.438851,0.000421
3239.921054,0.000537
3240.403257,0.000447
3240.885460,0.000260
3241.367663,0.000280
3241.849865,0.000240
3242.332068,0.000101
3242.814271,0.000160
3243.296474,0.000158
3243.778677,0.000030
3244.260880,0.000131
3244.743083,0.000340
3245.225285,0.000359
3245.707488,0.000250
3246.189691,0.000191
3246.671894,0.000233
3247.154097,0.000346
3247.636300,0.000449
3248.118503,0.000400
3248.600706,0.000222
3249.082908,0.000199
3249.565111,0.000343
3250.047314,0.000402
3250.529517,0.000475
3251.011720,0.000595
3251.493923,0.000490
3251.976126,0.000320
3252.458328,0.000368
3252.940531,0.000470
3253.422734,0.000386
3253.904937,0.000163
3254.387140,0.000112
3254.869343,0.000297
3255.351546,0.000478
3255.833749,0.000504
3256.315951,0.000331
3256.798154,0.000254
3257.280357,0.000415
3257.762560,0.000452
3258.244763,0.000415
3258.726966,0.000449
3259.209169,0.000335
3259.691371,0.000198
3260.173574,0.000204
3260.655777,0.000230
3261.137980,0.000323
3261.620183,0.000455
3262.102386,0.000482
3262.584589,0.000505
3263.066792,0.000469
3263.548994,0.000339
3264.031197,0.000344
3264.513400,0.000321
3264.995603,0.000180
3265.477806,0.000236
3265.960009,0.000359
3266.442212,0.000333
3266.924414,0.000375
3267.406617,0.000416
3267.888820,0.000317
3268.371023,0.000328
3268.853226,0.000318
3269.335429,0.000183
3269.817632,0.000252
3270.299835,0.000298
3270.782037,0.000194
3271.264240,0.000293
3271.746443,0.000436
3272.228646,0.000386
3272.710849,0.000293
3273.193052,0.000274
3273.675255,0.000251
3274.157457,0.000235
3274.639660,0.000274
3275.121863,0.000241
3275.604066,0.000219
3276.086269,0.000289
3276.568472,0.000345
3277.050675,0.000451
3277.532877,0.000481
3278.015080,0.000355
3278.497283,0.000253
3278.979486,0.000198
3279.461689,0.000320
3279.943892,0.000428
3280.426095,0.000181
3280.908298,0.000064
3281.390500,0.000220
3281.872703,0.000157
3282.354906,0.000010
3282.837109,-0.000006
3283.319312,-0.000038
3283.801515,-0.000040
3284.283718,0.000077
3284.765920,0.000195
3285.248123,0.000196
3285.730326,0.000185
3286.212529,0.000198
3286.694732,0.000097
3287.176935,0.000024
3287.659138,0.000086
3288.141341,0.000001
3288.623543,-0.000075
3289.105746,0.000169
3289.587949,0.000294
3290.070152,0.000186
3290.552355,0.000181
3291.034558,0.000212
3291.516761,0.000334
3291.998963,0.000439
3292.481166,0.000233
3292.963369,0.000059
3293.445572,0.000141
3293.927775,0.000257
3294.409978,0.000311
3294.892181,0.000217
3295.374384,0.000035
3295.856586,0.000003
3296.338789,0.000036
3296.820992,-0.000030
3297.303195,-0.000083
3297.785398,-0.000040
3298.267601,0.000039
3298.749804,0.000069
3299.232006,0.000134
3299.714209,0.000260
3300.196412,0.000163
3300.678615,0.000004
3301.160818,0.000067
3301.643021,0.000134
3302.125224,0.000155
3302.607426,0.000121
3303.089629,0.000012
3303.571832,0.000038
3304.054035,0.000144
3304.536238,0.000230
3305.018441,0.000247
3305.500644,0.000192
3305.982847,0.000162
3306.465049,0.000061
3306.947252,0.000041
3307.429455,0.000194
3307.911658,0.000216
3308.393861,0.000086
3308.876064,-0.000086
3309.358267,-0.000046
3309.840469,0.000126
3310.322672,0.000047
3310.804875,0.000056
3311.287078,0.000162
3311.769281,-0.000024
3312.251484,-0.000198
3312.733687,-0.000196
3313.215890,-0.000106
3313.698092,0.000071
3314.180295,0.000168
3314.662498,0.000133
3315.144701,0.000044
3315.626904,-0.000020
3316.109107,-0.000015
3316.591310,-0.000028
3317.073512,-0.000050
3317.555715,-0.000051
3318.037918,-0.000077
3318.520121,-0.000082
3319.002324,-0.000120
3319.484527,-0.000142
3319.966730,-0.000051
3320.448933,0.000036
3320.931135,0.000100
3321.413338,0.000073
3321.895541,-0.000039
3322.377744,-0.000101
3322.859947,-0.000114
3323.342150,-0.000038
3323.824353,-0.000085
3324.306555,-0.000214
3324.788758,-0.000043
3325.270961,0.000046
3325.753164,-0.000125
3326.235367,-0.000098
3326.717570,0.000010
3327.199773,0.000017
3327.681976,0.000077
3328.164178,0.000066
3328.646381,-0.000081
3329.128584,-0.000111
3329.610787,-0.000002
3330.092990,0.000049
3330.575193,0.000105
3331.057396,0.000197
3331.539598,0.000200
3332.021801,0.000163
3332.504004,0.000044
3332.986207,-0.000097
3333.468410,0.000002
3333.950613,0.000156
3334.432816,0.000080
3334.915018,-0.000029
3335.397221,-0.000019
3335.879424,-0.000060
3336.361627,-0.000080
3336.843830,0.000028
3337.326033,0.000054
3337.808236,-0.000036
3338.290439,-0.000118
3338.772641,-0.000071
3339.254844,0.000075
3339.737047,0.000091
3340.219250,0.000080
3340.701453,0.000115
3341.183656,0.000039
3341.665859,0.000064
3342.148061,0.000164
3342.630264,-0.000010
3343.112467,-0.000144
3343.594670,0.000034
3344.076873,0.000166
3344.559076,0.000128
3345.041279,0.000167
3345.523482,0.000304
3346.005684,0.000223
3346.487887,0.000017
3346.970090,0.000027
3347.452293,0.000080
3347.934496,0.000075
3348.416699,0.000012
3348.898902,-0.000076
3349.381104,0.000044
3349.863307,0.000146
3350.345510,0.000063
3350.827713,0.000038
3351.309916,0.000128
3351.792119,0.000223
3352.274322,0.000120
3352.756525,0.000012
3353.238727,0.000207
3353.720930,0.000304
3354.203133,0.000252
3354.685336,0.000307
3355.167539,0.000255
3355.649742,0.000202
3356.131945,0.000233
3356.614147,0.000186
3357.096350,0.000120
3357.578553,0.000197
3358.060756,0.000432
3358.542959,0.000368
3359.025162,0.000145
3359.507365,0.000238
3359.989568,0.000266
3360.471770,0.000164
3360.953973,0.000148
3361.436176,0.000133
3361.918379,0.000136
3362.400582,0.000114
3362.882785,0.000081
3363.364988,0.000167
3363.847190,0.000340
3364.329393,0.000291
3364.811596,0.000053
3365.293799,0.000059
3365.776002,0.000149
3366.258205,0.000119
3366.740408,0.000163
3367.222610,0.000182
3367.704813,0.000097
3368.187016,0.000028
3368.669219,0.000020
3369.151422,0.000174
3369.633625,0.000317
3370.115828,0.000246
3370.598031,0.000220
3371.080233,0.000374
3371.562436,0.000454
3372.044639,0.000329
3372.526842,0.000292
3373.009045,0.000366
3373.491248,0.000238
3373.973451,0.000130
3374.455653,0.000114
3374.937856,0.000010
3375.420059,-0.000016
3375.902262,0.000042
3376.384465,0.000100
3376.866668,0.000119
3377.348871,0.000171
3377.831074,0.000320
3378.313276,0.000318
3378.795479,0.000268
3379.277682,0.000353
3379.759885,0.000299
3380.242088,0.000168
3380.724291,0.000211
3381.206494,0.000279
3381.688696,0.000237
3382.170899,0.000124
3382.653102,0.000070
3383.135305,0.000023
3383.617508,-0.000098
3384.099711,-0.000019
3384.581914,0.000170
3385.064117,0.000171
3385.546319,0.000062
3386.028522,-0.000014
3386.510725,0.000057
3386.992928,0.000195
3387.475131,0.000307
3387.957334,0.000332
3388.439537,0.000130
3388.921739,-0.000036
3389.403942,0.000096
3389.886145,0.000219
3390.368348,0.000200
3390.850551,0.000321
3391.332754,0.000353
3391.814957,0.000118
3392.297160,0.000104
3392.779362,0.000272
3393.261565,0.000277
3393.743768,0.000237
3394.225971,0.000200
3394.708174,0.000112
3395.190377,0.000109
3395.672580,0.000128
3396.154782,-0.000018
3396.636985,-0.000131
3397.119188,-0.000103
3397.601391,-0.000008
3398.083594,0.000176
3398.565797,0.000238
3399.048000,0.000113
3399.530202,0.000023
3400.012405,0.000009
3400.494608,-0.000041
3400.976811,-0.000045
3401.459014,0.000129
3401.941217,0.000251
3402.423420,0.000218
3402.905623,0.000196
3403.387825,0.000074
3403.870028,-0.000031
3404.352231,0.000108
3404.834434,0.000196
3405.316637,0.000152
3405.798840,0.000084
3406.281043,0.000012
3406.763245,0.000215
3407.245448,0.000427
3407.727651,0.000225
3408.209854,0.000008
3408.692057,0.000010
3409.174260,0.000029
3409.656463,0.000080
3410.138666,0.000191
3410.620868,0.000254
3411.103071,0.000174
3411.585274,0.000004
3412.067477,-0.000026
3412.549680,-0.000004
3413.031883,-0.000117
3413.514086,-0.000067
3413.996288,0.000200
3414.478491,0.000307
3414.960694,0.000191
3415.442897,0.000175
3415.925100,0.000382
3416.407303,0.000399
3416.889506,0.000216
3417.371709,0.000308
3417.853911,0.000388
3418.336114,0.000133
3418.818317,-0.000091
3419.300520,-0.000022
3419.782723,0.000244
3420.264926,0.000410
3420.747129,0.000306
3421.229331,0.000034
3421.711534,-0.000156
3422.193737,-0.000076
3422.675940,0.000040
3423.158143,0.000050
3423.640346,-0.000010
3424.122549,-0.000122
3424.604751,-0.000093
3425.086954,-0.000079
3425.569157,-0.000055
3426.051360,0.000124
3426.533563,0.000119
3427.015766,0.000050
3427.497969,0.000042
3427.980172,0.000030
3428.462374,0.000111
3428.944577,0.000113
3429.426780,0.000114
3429.908983,0.000189
3430.391186,0.000142
3430.873389,-0.000019
3431.355592,-0.000093
3431.837794,0.000026
3432.319997,-0.000056
3432.802200,-0.000262
3433.284403,-0.000019
3433.766606,0.000344
3434.248809,0.000415
3434.731012,0.000333
3435.213215,0.000251
3435.695417,0.000266
3436.177620,0.000221
3436.659823,0.000144
3437.142026,0.000182
3437.624229,0.000079
3438.106432,-0.000009
3438.588635,0.000149
3439.070837,0.000243
3439.553040,0.000239
3440.035243,0.000288
3440.517446,0.000242
3440.999649,-0.000025
3441.481852,-0.000176
3441.964055,0.000063
3442.446258,0.000278
3442.928460,0.000208
3443.410663,0.000070
3443.892866,0.000034
3444.375069,0.000097
3444.857272,0.000147
3445.339475,0.000250
3445.821678,0.000378
3446.303880,0.000334
3446.786083,0.000283
3447.268286,0.000362
3447.750489,0.000369
3448.232692,0.000282
3448.714895,0.000233
3449.197098,0.000174
3449.679301,0.000092
3450.161503,0.000147
3450.643706,0.000263
3451.125909,0.000190
3451.608112,0.000070
3452.090315,0.000030
3452.572518,-0.000008
3453.054721,0.000023
3453.536923,0.000015
3454.019126,-0.000072
3454.501329,-0.000051
3454.983532,0.000036
3455.465735,0.000085
3455.947938,0.000178
3456.430141,0.000215
3456.912343,0.000049
3457.394546,0.000064
3457.876749,0.000234
3458.358952,0.000170
3458.841155,0.000197
3459.323358,0.000293
3459.805561,0.000216
3460.287764,0.000222
3460.769966,0.000285
3461.252169,0.000307
3461.734372,0.000327
3462.216575,0.000332
3462.698778,0.000244
3463.180981,0.000041
3463.663184,0.000061
3464.145386,0.000210
3464.627589,0.000057
3465.109792,-0.000028
3465.591995,0.000130
3466.074198,0.000068
3466.556401,-0.000028
3467.038604,0.000179
3467.520807,0.000352
3468.003009,0.000323
3468.485212,0.000259
3468.967415,0.000046
3469.449618,-0.000182
3469.931821,-0.000120
3470.414024,-0.000015
3470.896227,-0.000001
3471.378429,-0.000054
3471.860632,-0.000050
3472.342835,0.000189
3472.825038,0.000218
3473.307241,0.000055
3473.789444,0.000087
3474.271647,0.000110
3474.753850,0.000134
3475.236052,0.000124
3475.718255,0.000077
3476.200458,0.000190
3476.682661,0.000110
3477.164864,-0.000113
3477.647067,-0.000050
3478.129270,-0.000027
3478.611472,-0.000266
3479.093675,-0.000301
3479.575878,0.000005
3480.058081,0.000160
3480.540284,0.000005
3481.022487,-0.000140
3481.504690,-0.000136
3481.986893,0.000051
3482.469095,0.000241
3482.951298,0.000211
3483.433501,0.000239
3483.915704,0.000313
3484.397907,0.000209
3484.880110,0.000144
3485.362313,0.000131
3485.844515,0.000156
3486.326718,0.000261
3486.808921,0.000188
3487.291124,0.000023
3487.773327,0.000010
3488.255530,0.000018
3488.737733,-0.000013
3489.219935,0.000023
3489.702138,0.000046
3490.184341,0.000007
3490.666544,0.000051
3491.148747,0.000114
3491.630950,0.000097
3492.113153,0.000223
3492.595356,0.000357
3493.077558,0.000162
3493.559761,0.000058
3494.041964,0.000215
3494.524167,0.000153
3495.006370,0.000122
3495.488573,0.000263
3495.970776,0.000275
3496.452978,0.000428
3496.935181,0.000479
3497.417384,0.000153
3497.899587,0.000005
3498.381790,0.000092
3498.863993,0.000230
3499.346196,0.000354
3499.828399,0.000327
3500.310601,0.000208
3500.792804,-0.000047
3501.275007,-0.000224
3501.757210,-0.000117
3502.239413,-0.000042
3502.721616,-0.000036
3503.203819,-0.000055
3503.686021,-0.000133
3504.168224,-0.000046
3504.650427,0.000044
3505.132630,-0.000093
3505.614833,-0.000146
3506.097036,0.000047
3506.579239,0.000174
3507.061442,0.000065
3507.543644,-0.000005
3508.025847,0.000056
3508.508050,0.000056
3508.990253,-0.000008
3509.472456,-0.000025
3509.954659,0.000079
3510.436862,0.000112
3510.919064,0.000095
3511.401267,0.000314
3511.883470,0.000334
3512.365673,0.000035
3512.847876,0.000035
3513.330079,0.000194
3513.812282,0.000065
3514.294484,0.000033
3514.776687,0.000445
3515.258890,0.000721
3515.741093,0.000674
3516.223296,0.000640
3516.705499,0.000471
3517.187702,0.000242
3517.669905,0.000048
3518.152107,-0.000093
3518.634310,-0.000009
3519.116513,0.000087
3519.598716,0.000166
3520.080919,0.000226
3520.563122,0.000130
3521.045325,0.000067
3521.527527,0.000104
3522.009730,0.000181
3522.491933,0.000185
3522.974136,0.000069
3523.456339,-0.000004
3523.938542,-0.000086
3524.420745,-0.000339
3524.902948,-0.000482
3525.385150,-0.000190
3525.867353,0.000078
3526.349556,0.000021
3526.831759,0.000039
3527.313962,0.000070
3527.796165,-0.000008
3528.278368,0.000120
3528.760570,0.000338
3529.242773,0.000301
3529.724976,0.000184
3530.207179,0.000256
3530.689382,0.000276
3531.171585,0.000186
3531.653788,0.000153
3532.135991,0.000027
3532.618193,-0.000008
3533.100396,0.000170
3533.582599,0.000227
3534.064802,0.000189
3534.547005,0.000145
3535.029208,0.000093
3535.511411,0.000098
3535.993613,0.000111
3536.475816,0.000156
3536.958019,0.000235
3537.440222,0.000255
3537.922425,0.000173
3538.404628,0.000136
3538.886831,0.000193
3539.369034,0.000185
3539.851236,0.000204
3540.333439,0.000234
3540.815642,0.000204
3541.297845,0.000131
3541.780048,-0.000035
3542.262251,-0.000040
3542.744454,0.000058
3543.226656,-0.000033
3543.708859,-0.000060
3544.191062,0.000132
3544.673265,0.000227
3545.155468,0.000070
3545.637671,0.000056
3546.119874,0.000188
3546.602076,0.000049
3547.084279,0.000075
3547.566482,0.000434
3548.048685,0.000423
3548.530888,0.000218
3549.013091,0.000228
3549.495294,0.000220
3549.977497,0.000262
3550.459699,0.000344
3550.941902,0.000234
3551.424105,0.000122
3551.906308,0.000111
3552.388511,0.000077
3552.870714,0.000111
3553.352917,0.000399
3553.835119,0.000647
3554.317322,0.000579
3554.799525,0.000580
3555.281728,0.000749
3555.763931,0.000726
3556.246134,0.000496
3556.728337,0.000456
3557.210540,0.000637
3557.692742,0.000636
3558.174945,0.000671
3558.657148,0.000844
3559.139351,0.000782
3559.621554,0.000690
3560.103757,0.000615
3560.585960,0.000489
3561.068162,0.000653
3561.550365,0.000882
3562.032568,0.000885
3562.514771,0.000797
3562.996974,0.000626
3563.479177,0.000519
3563.961380,0.000590
3564.443583,0.000667
3564.925785,0.000648
3565.407988,0.000653
3565.890191,0.000804
3566.372394,0.000839
3566.854597,0.000725
3567.336800,0.000726
3567.819003,0.000719
3568.301205,0.000703
3568.783408,0.000913
3569.265611,0.001276
3569.747814,0.001395
3570.230017,0.001293
3570.712220,0.001320
3571.194423,0.001319
3571.676626,0.001288
3572.158828,0.001431
3572.641031,0.001471
3573.123234,0.001320
3573.605437,0.001196
3574.087640,0.001179
3574.569843,0.001276
3575.052046,0.001399
3575.534248,0.001347
3576.016451,0.001210
3576.498654,0.001271
3576.980857,0.001422
3577.463060,0.001399
3577.945263,0.001272
3578.427466,0.001230
3578.909668,0.001256
3579.391871,0.001306
3579.874074,0.001345
3580.356277,0.001359
3580.838480,0.001471
3581.320683,0.001523
3581.802886,0.001342
3582.285089,0.001184
3582.767291,0.001025
3583.249494,0.000722
3583.731697,0.000670
3584.213900,0.000757
3584.696103,0.000478
3585.178306,0.000357
3585.660509,0.000596
3586.142711,0.000625
3586.624914,0.000662
3587.107117,0.000801
3587.589320,0.000755
3588.071523,0.000815
3588.553726,0.000983
3589.035929,0.001118
3589.518132,0.001411
3590.000334,0.001737
3590.482537,0.001904
3590.964740,0.001668
3591.446943,0.000933
3591.929146,0.000341
3592.411349,0.000193
3592.893552,0.000132
3593.375754,0.000157
3593.857957,0.000375
3594.340160,0.000584
3594.822363,0.000591
3595.304566,0.000495
3595.786769,0.000498
3596.268972,0.000601
3596.751175,0.000736
3597.233377,0.000852
3597.715580,0.000910
3598.197783,0.000963
3598.679986,0.001032
3599.162189,0.001054
3599.644392,0.001035
3600.126595,0.000941
3600.608797,0.000825
3601.091000,0.001050
3601.573203,0.001449
3602.055406,0.001492
3602.537609,0.001389
3603.019812,0.001398
3603.502015,0.001371
3603.984217,0.001275
3604.466420,0.001128
3604.948623,0.001112
3605.430826,0.001325
3605.913029,0.001401
3606.395232,0.001196
3606.877435,0.001008
3607.359638,0.001027
3607.841840,0.001045
3608.324043,0.000917
3608.806246,0.000970
3609.288449,0.001072
3609.770652,0.000906
3610.252855,0.000861
3610.735058,0.001018
3611.217260,0.001108
3611.699463,0.001095
3612.181666,0.000963
3612.663869,0.000744
3613.146072,0.000627
3613.628275,0.000737
3614.110478,0.000796
3614.592681,0.000611
3615.074883,0.000427
3615.557086,0.000478
3616.039289,0.000540
3616.521492,0.000428
3617.003695,0.000411
3617.485898,0.000455
3617.968101,0.000325
3618.450303,0.000201
3618.932506,0.000210
3619.414709,0.000182
3619.896912,0.000021
3620.379115,0.000024
3620.861318,0.000247
3621.343521,0.000333
3621.825724,0.000339
3622.307926,0.000320
3622.790129,0.000082
3623.272332,-0.000091
3623.754535,0.000047
3624.236738,0.000200
3624.718941,0.000241
3625.201144,0.000276
3625.683346,0.000140
3626.165549,-0.000182
3626.647752,-0.000280
3627.129955,-0.000163
3627.612158,-0.000219
3628.094361,-0.000332
3628.576564,-0.000277
3629.058767,-0.000235
3629.540969,-0.000375
3630.023172,-0.000451
3630.505375,-0.000132
3630.987578,0.000163
3631.469781,0.000044
3631.951984,-0.000069
3632.434187,0.000024
3632.916389,0.000029
3633.398592,0.000094
3633.880795,0.000206
3634.362998,0.000082
3634.845201,0.000084
3635.327404,0.000279
3635.809607,0.000194
3636.291809,0.000061
3636.774012,0.000140
3637.256215,0.000116
3637.738418,-0.000007
3638.220621,-0.000005
3638.702824,0.000155
3639.185027,0.000300
3639.667230,0.000296
3640.149432,0.000274
3640.631635,0.000155
3641.113838,-0.000022
3641.596041,0.000036
3642.078244,0.000112
3642.560447,0.000167
3643.042650,0.000354
3643.524852,0.000347
3644.007055,0.000225
3644.489258,0.000229
3644.971461,0.000172
3645.453664,0.000099
3645.935867,0.000106
3646.418070,0.000139
3646.900273,0.000075
3647.382475,-0.000187
3647.864678,-0.000299
3648.346881,-0.000123
3648.829084,-0.000056
3649.311287,-0.000146
3649.793490,-0.000182
3650.275693,-0.000037
3650.757895,0.000173
3651.240098,0.000318
3651.722301,0.000380
3652.204504,0.000361
3652.686707,0.000352
3653.168910,0.000379
3653.651113,0.000401
3654.133316,0.000426
3654.615518,0.000389
3655.097721,0.000383
3655.579924,0.000460
3656.062127,0.000385
3656.544330,0.000117
3657.026533,-0.000004
3657.508736,0.000252
3657.990938,0.000470
3658.473141,0.000338
3658.955344,0.000245
3659.437547,0.000335
3659.919750,0.000462
3660.401953,0.000692
3660.884156,0.000690
3661.366359,0.000424
3661.848561,0.000367
3662.330764,0.000470
3662.812967,0.000629
3663.295170,0.000839
3663.777373,0.000832
3664.259576,0.000595
3664.741779,0.000408
3665.223981,0.000307
3665.706184,0.000290
3666.188387,0.000448
3666.670590,0.000526
3667.152793,0.000422
3667.634996,0.000406
3668.117199,0.000360
3668.599401,0.000170
3669.081604,0.000181
3669.563807,0.000506
3670.046010,0.000658
3670.528213,0.000441
3671.010416,0.000206
3671.492619,0.000215
3671.974822,0.000247
3672.457024,0.000121
3672.939227,0.000158
3673.421430,0.000313
3673.903633,0.000170
3674.385836,0.000052
3674.868039,0.000102
3675.350242,0.000026
3675.832444,0.000057
3676.314647,0.000165
3676.796850,0.000151
3677.279053,0.000248
3677.761256,0.000442
3678.243459,0.000457
3678.725662,0.000457
3679.207865,0.000610
3679.690067,0.000507
3680.172270,0.000316
3680.654473,0.000381
3681.136676,0.000408
3681.618879,0.000399
3682.101082,0.000492
3682.583285,0.000629
3683.065487,0.000683
3683.547690,0.000602
3684.029893,0.000518
3684.512096,0.000465
3684.994299,0.000451
3685.476502,0.000398
3685.958705,0.000311
3686.440908,0.000205
3686.923110,0.000010
3687.405313,0.000032
3687.887516,0.000135
3688.369719,-0.000023
3688.851922,-0.000222
3689.334125,-0.000271
3689.816328,0.000004
3690.298530,0.000319
3690.780733,0.000221
3691.262936,0.000033
3691.745139,0.000028
3692.227342,0.000080
3692.709545,0.000193
3693.191748,0.000330
3693.673951,0.000438
3694.156153,0.000379
3694.638356,0.000218
3695.120559,0.000279
3695.602762,0.000451
3696.084965,0.000499
3696.567168,0.000431
3697.049371,0.000328
3697.531573,0.000397
3698.013776,0.000496
3698.495979,0.000395
3698.978182,0.000317
3699.460385,0.000309
3699.942588,0.000282
3700.424791,0.000312
3700.906993,0.000325
3701.389196,0.000198
3701.871399,-0.000011
3702.353602,-0.000058
3702.835805,0.000185
3703.318008,0.000342
3703.800211,0.000251
3704.282414,0.000292
3704.764616,0.000402
3705.246819,0.000302
3705.729022,0.000237
3706.211225,0.000272
3706.693428,0.000327
3707.175631,0.000433
3707.657834,0.000419
3708.140036,0.000336
3708.622239,0.000367
3709.104442,0.000303
3709.586645,0.000001
3710.068848,-0.000069
3710.551051,0.000252
3711.033254,0.000406
3711.515457,0.000466
3711.997659,0.000530
3712.479862,0.000138
3712.962065,-0.000104
3713.444268,0.000337
3713.926471,0.000582
3714.408674,0.000410
3714.890877,0.000355
3715.373079,0.000570
3715.855282,0.000676
3716.337485,0.000532
3716.819688,0.000441
3717.301891,0.000391
3717.784094,0.000309
3718.266297,0.000340
3718.748500,0.000257
3719.230702,0.000090
3719.712905,0.000197
3720.195108,0.000271
3720.677311,0.000195
3721.159514,0.000308
3721.641717,0.000282
3722.123920,-0.000074
3722.606122,-0.000242
3723.088325,-0.000163
3723.570528,-0.000023
3724.052731,0.000246
3724.534934,0.000424
3725.017137,0.000348
3725.499340,0.000146
3725.981542,-0.000021
3726.463745,-0.000023
3726.945948,-0.000043
3727.428151,-0.000131
3727.910354,-0.000049
3728.392557,0.000003
3728.874760,-0.000106
3729.356963,-0.000140
3729.839165,-0.000066
3730.321368,0.000019
3730.803571,0.000027
3731.285774,-0.000083
3731.767977,-0.000256
3732.250180,-0.000378
3732.732383,-0.000305
3733.214585,-0.000090
3733.696788,0.000031
3734.178991,-0.000051
3734.661194,-0.000182
3735.143397,-0.000260
3735.625600,-0.000260
3736.107803,-0.000060
3736.590006,0.000046
3737.072208,0.000013
3737.554411,0.000089
3738.036614,0.000073
3738.518817,0.000007
3739.001020,0.000040
3739.483223,0.000171
3739.965426,0.000411
3740.447628,0.000510
3740.929831,0.000373
3741.412034,0.000200
3741.894237,0.000097
3742.376440,-0.000002
3742.858643,-0.000136
3743.340846,-0.000151
3743.823049,-0.000117
3744.305251,-0.000203
3744.787454,-0.000416
3745.269657,-0.000541
3745.751860,-0.000097
3746.234063,0.000427
3746.716266,0.000443
3747.198469,0.000399
3747.680671,0.000558
3748.162874,0.000442
3748.645077,0.000254
3749.127280,0.000205
3749.609483,-0.000106
3750.091686,-0.000283
3750.573889,0.000001
3751.056092,0.000121
3751.538294,0.000206
3752.020497,0.000380
3752.502700,0.000159
3752.984903,-0.000172
3753.467106,0.000028
3753.949309,0.000315
3754.431512,0.000426
3754.913714,0.000566
3755.395917,0.000632
3755.878120,0.000617
3756.360323,0.000692
3756.842526,0.000566
3757.324729,0.000301
3757.806932,0.000254
3758.289134,0.000296
3758.771337,0.000318
3759.253540,0.000293
3759.735743,0.000304
3760.217946,0.000319
3760.700149,0.000283
3761.182352,0.000375
3761.664555,0.000422
3762.146757,0.000370
3762.628960,0.000354
3763.111163,0.000306
3763.593366,0.000290
3764.075569,0.000289
3764.557772,0.000237
3765.039975,0.000174
3765.522177,0.000147
3766.004380,0.000155
3766.486583,0.000208
3766.968786,0.000332
3767.450989,0.000324
3767.933192,0.000271
3768.415395,0.000330
3768.897598,0.000318
3769.379800,0.000273
3769.862003,0.000102
3770.344206,-0.000101
3770.826409,0.000035
3771.308612,0.000139
3771.790815,0.000177
3772.273018,0.000325
3772.755220,0.000292
3773.237423,0.000215
3773.719626,0.000273
3774.201829,0.000356
3774.684032,0.000462
3775.166235,0.000456
3775.648438,0.000384
3776.130641,0.000421
3776.612843,0.000400
3777.095046,0.000254
3777.577249,0.000228
3778.059452,0.000264
3778.541655,0.000175
3779.023858,0.000104
3779.506061,0.000079
3779.988263,0.000079
3780.470466,0.000191
3780.952669,0.000278
3781.434872,0.000188
3781.917075,0.000067
3782.399278,0.000169
3782.881481,0.000300
3783.363684,0.000245
3783.845886,0.000205
3784.328089,0.000229
3784.810292,0.000156
3785.292495,0.000027
3785.774698,0.000006
3786.256901,0.000028
3786.739104,0.000118
3787.221306,0.000227
3787.703509,0.000067
3788.185712,-0.000039
3788.667915,0.000134
3789.150118,0.000312
3789.632321,0.000379
3790.114524,0.000247
3790.596726,0.000118
3791.078929,0.000201
3791.561132,0.000355
3792.043335,0.000391
3792.525538,0.000280
3793.007741,0.000302
3793.489944,0.000361
3793.972147,0.000176
3794.454349,0.000024
3794.936552,-0.000001
3795.418755,-0.000019
3795.900958,0.000052
3796.383161,0.000057
3796.865364,-0.000090
3797.347567,-0.000154
3797.829769,-0.000048
3798.311972,0.000040
3798.794175,-0.000049
3799.276378,-0.000085
3799.758581,0.000053
3800.240784,0.000057
3800.722987,-0.000067
3801.205190,-0.000157
3801.687392,-0.000327
3802.169595,-0.000388
3802.651798,-0.000225
3803.134001,-0.000218
3803.616204,-0.000211
3804.098407,-0.000021
3804.580610,-0.000012
3805.062812,-0.000143
3805.545015,-0.000187
3806.027218,-0.000075
3806.509421,0.000094
3806.991624,-0.000040
3807.473827,-0.000231
3807.956030,-0.000067
3808.438233,0.000111
3808.920435,0.000153
3809.402638,0.000173
3809.884841,0.000109
3810.367044,-0.000071
3810.849247,-0.000036
3811.331450,0.000251
3811.813653,0.000345
3812.295855,0.000187
3812.778058,0.000059
3813.260261,0.000164
3813.742464,0.000341
3814.224667,0.000324
3814.706870,0.000299
3815.189073,0.000265
3815.671275,0.000044
3816.153478,-0.000169
3816.635681,-0.000240
3817.117884,-0.000093
3817.600087,0.000068
3818.082290,0.000016
3818.564493,-0.000006
3819.046696,0.000057
3819.528898,0.000118
3820.011101,0.000102
3820.493304,-0.000228
3820.975507,-0.000499
3821.457710,-0.000560
3821.939913,-0.000652
3822.422116,-0.000418
3822.904318,-0.000038
3823.386521,0.000094
3823.868724,0.000047
3824.350927,-0.000068
3824.833130,-0.000059
3825.315333,-0.000002
3825.797536,0.000062
3826.279739,0.000179
3826.761941,0.000111
3827.244144,-0.000084
3827.726347,-0.000099
3828.208550,0.000075
3828.690753,0.000261
3829.172956,0.000309
3829.655159,0.000217
3830.137361,0.000058
3830.619564,-0.000103
3831.101767,-0.000094
3831.583970,-0.000022
3832.066173,-0.000116
3832.548376,-0.000103
3833.030579,-0.000014
3833.512782,-0.000003
3833.994984,0.000123
3834.477187,0.000142
3834.959390,-0.000079
3835.441593,-0.000365
3835.923796,-0.000500
3836.405999,-0.000300
3836.888202,-0.000030
3837.370404,0.000059
3837.852607,-0.000178
3838.334810,-0.000479
3838.817013,-0.000215
3839.299216,0.000056
3839.781419,-0.000023
3840.263622,-0.000108
3840.745825,-0.000177
3841.228027,-0.000263
3841.710230,-0.000283
3842.192433,-0.000196
3842.674636,-0.000029
3843.156839,0.000078
3843.639042,0.000070
3844.121245,0.000102
3844.603447,0.000287
3845.085650,0.000400
3845.567853,0.000273
3846.050056,0.000161
3846.532259,0.000272
3847.014462,0.000356
3847.496665,0.000233
3847.978867,0.000105
3848.461070,0.000073
3848.943273,-0.000006
3849.425476,-0.000135
3849.907679,-0.000147
3850.389882,-0.000126
3850.872085,-0.000211
3851.354288,-0.000209
3851.836490,-0.000214
3852.318693,-0.000517
3852.800896,-0.000708
3853.283099,-0.000459
3853.765302,-0.000447
3854.247505,-0.000906
3854.729708,-0.001075
3855.211910,-0.000716
3855.694113,-0.000375
3856.176316,-0.000157
3856.658519,-0.000107
3857.140722,-0.000125
3857.622925,-0.000059
3858.105128,0.000116
3858.587331,0.000278
3859.069533,0.000346
3859.551736,0.000336
3860.033939,0.000198
3860.516142,0.000074
3860.998345,-0.000034
3861.480548,-0.000139
3861.962751,-0.000065
3862.444953,-0.000036
3862.927156,-0.000089
3863.409359,-0.000092
3863.891562,-0.000146
3864.373765,-0.000149
3864.855968,-0.000236
3865.338171,-0.000461
3865.820374,-0.000473
3866.302576,-0.000372
3866.784779,-0.000277
3867.266982,-0.000105
3867.749185,-0.000072
3868.231388,-0.000178
3868.713591,-0.000209
3869.195794,-0.000201
3869.677996,-0.000173
3870.160199,-0.000112
3870.642402,-0.000108
3871.124605,-0.000089
3871.606808,0.000069
3872.089011,0.000143
3872.571214,-0.000012
3873.053417,-0.000031
3873.535619,0.000123
3874.017822,0.000094
3874.500025,-0.000070
3874.982228,-0.000091
3875.464431,0.000075
3875.946634,0.000099
3876.428837,-0.000069
3876.911039,-0.000092
3877.393242,-0.000048
3877.875445,-0.000065
3878.357648,-0.000098
3878.839851,-0.000161
3879.322054,-0.000077
3879.804257,-0.000006
3880.286459,-0.000137
3880.768662,-0.000178
3881.250865,-0.000190
3881.733068,-0.000197
3882.215271,-0.000100
3882.697474,-0.000122
3883.179677,-0.000106
3883.661880,0.000007
3884.144082,-0.000043
3884.626285,-0.000081
3885.108488,-0.000024
3885.590691,-0.000078
3886.072894,-0.000190
3886.555097,-0.000127
3887.037300,0.000020
3887.519502,0.000153
3888.001705,0.000305
3888.483908,0.000138
3888.966111,-0.000200
3889.448314,-0.000126
3889.930517,0.000072
3890.412720,0.000047
3890.894923,-0.000027
3891.377125,-0.000054
3891.859328,-0.000026
3892.341531,-0.000101
3892.823734,-0.000273
3893.305937,-0.000241
3893.788140,-0.000046
3894.270343,0.000049
3894.752545,0.000058
3895.234748,0.000089
3895.716951,0.000167
3896.199154,0.000190
3896.681357,0.000011
3897.163560,-0.000144
3897.645763,-0.000054
3898.127966,0.000064
3898.610168,0.000050
3899.092371,-0.000116
3899.574574,-0.000375
3900.056777,-0.000433
3900.538980,-0.000216
3901.021183,0.000012
3901.503386,-0.000005
3901.985588,-0.000352
3902.467791,-0.000635
3902.949994,-0.000456
3903.432197,-0.000119
3903.914400,-0.000029
3904.396603,-0.000176
3904.878806,-0.000223
3905.361008,-0.000096
3905.843211,0.000024
3906.325414,0.000097
3906.807617,0.000002
3907.289820,-0.000096
3907.772023,0.000001
3908.254226,0.000053
3908.736429,0.000081
3909.218631,0.000190
3909.700834,0.000245
3910.183037,0.000160
3910.665240,-0.000063
3911.147443,-0.000088
3911.629646,0.000017
3912.111849,-0.000134
3912.594051,-0.000155
3913.076254,-0.000083
3913.558457,-0.000268
3914.040660,-0.000184
3914.522863,0.000080
3915.005066,0.000013
3915.487269,-0.000104
3915.969472,-0.000139
3916.451674,-0.000144
3916.933877,-0.000142
3917.416080,-0.000214
3917.898283,-0.000137
3918.380486,0.000008
3918.862689,0.000069
3919.344892,0.000145
3919.827094,0.000003
3920.309297,-0.000183
3920.791500,-0.000089
3921.273703,-0.000042
3921.755906,-0.000025
3922.238109,0.000110
3922.720312,0.000137
3923.202515,0.000105
3923.684717,0.000085
3924.166920,-0.000040
3924.649123,-0.000157
3925.131326,-0.000090
3925.613529,0.000008
3926.095732,-0.000043
3926.577935,-0.000046
3927.060137,0.000024
3927.542340,-0.000010
3928.024543,-0.000065
3928.506746,-0.000124
3928.988949,-0.000205
3929.471152,-0.000205
3929.953355,-0.000162
3930.435558,-0.000129
3930.917760,-0.000093
3931.399963,-0.000049
3931.882166,-0.000048
3932.364369,-0.000191
3932.846572,-0.000314
3933.328775,-0.000232
3933.810978,-0.000166
3934.293180,-0.000187
3934.775383,-0.000064
3935.257586,0.000037
3935.739789,-0.000118
3936.221992,-0.000265
3936.704195,-0.000172
3937.186398,0.000079
3937.668600,0.000263
3938.150803,0.000146
3938.633006,-0.000202
3939.115209,-0.000349
3939.597412,-0.000186
3940.079615,-0.000163
3940.561818,-0.000222
3941.044021,-0.000006
3941.526223,0.000091
3942.008426,-0.000015
3942.490629,0.000020
3942.972832,-0.000021
3943.455035,-0.000100
3943.937238,0.000004
3944.419441,-0.000107
3944.901643,-0.000307
3945.383846,-0.000163
3945.866049,-0.000116
3946.348252,-0.000221
3946.830455,-0.000069
3947.312658,0.000083
3947.794861,0.000082
3948.277064,0.000029
3948.759266,-0.000161
3949.241469,-0.000348
3949.723672,-0.000264
3950.205875,-0.000033
3950.688078,0.000075
3951.170281,0.000183
3951.652484,0.000237
3952.134686,0.000086
3952.616889,0.000097
3953.099092,0.000224
3953.581295,0.000184
3954.063498,0.000171
3954.545701,0.000094
3955.027904,-0.000180
3955.510107,-0.000293
3955.992309,-0.000178
3956.474512,-0.000111
3956.956715,-0.000112
3957.438918,-0.000066
3957.921121,-0.000044
3958.403324,-0.000143
3958.885527,-0.000223
3959.367729,-0.000177
3959.849932,-0.000084
3960.332135,-0.000028
3960.814338,-0.000085
3961.296541,-0.000087
3961.778744,0.000037
3962.260947,0.000004
3962.743150,-0.000121
3963.225352,-0.000166
3963.707555,-0.000212
3964.189758,-0.000177
3964.671961,-0.000022
3965.154164,0.000056
3965.636367,-0.000001
3966.118570,-0.000074
3966.600772,-0.000014
3967.082975,0.000122
3967.565178,0.000089
3968.047381,0.000004
3968.529584,-0.000030
3969.011787,-0.000164
3969.493990,-0.000198
3969.976192,-0.000133
3970.458395,-0.000091
3970.940598,0.000075
3971.422801,0.000127
3971.905004,0.000145
3972.387207,0.000254
3972.869410,0.000092
3973.351613,-0.000068
3973.833815,-0.000037
3974.316018,-0.000026
3974.798221,0.000075
3975.280424,0.000056
3975.762627,-0.000026
3976.244830,0.000112
3976.727033,0.000201
3977.209235,0.000191
3977.691438,0.000154
3978.173641,0.000047
3978.655844,-0.000113
3979.138047,-0.000305
3979.620250,-0.000292
3980.102453,-0.000154
3980.584656,-0.000080
3981.066858,0.000061
3981.549061,0.000172
3982.031264,0.000140
3982.513467,-0.000082
3982.995670,-0.000236
3983.477873,-0.000019
3983.960076,-0.000010
3984.442278,-0.000234
3984.924481,-0.000062
3985.406684,0.000000
3985.888887,-0.000229
3986.371090,-0.000093
3986.853293,0.000079
3987.335496,-0.000069
3987.817699,-0.000112
3988.299901,-0.000022
3988.782104,0.000095
3989.264307,0.000224
3989.746510,0.000121
3990.228713,-0.000042
3990.710916,-0.000001
3991.193119,0.000033
3991.675321,0.000044
3992.157524,0.000067
3992.639727,0.000032
3993.121930,0.000093
3993.604133,0.000065
3994.086336,-0.000156
3994.568539,-0.000218
3995.050742,-0.000092
3995.532944,0.000116
3996.015147,0.000219
3996.497350,0.000126
3996.979553,0.000135
3997.461756,0.000249
3997.943959,0.000306
3998.426162,0.000224
3998.908364,-0.000003
3999.390567,-0.000175
3999.872770,-0.000218
4000.354973,-0.000171
