XLabel,Wavenumber
YLabel,Absorbance
FileType,Absorbance
DisplayDirection,20300
PeakDirection,20312
898.826141,0.000224
900.754953,0.000806
902.683764,0.000090
904.612576,0.000053
906.541387,0.000657
908.470199,0.000221
910.399010,0.000382
912.327822,0.001384
914.256633,0.000538
916.185445,-0.000705
918.114256,-0.000290
920.043068,-0.000217
921.971879,-0.000465
923.900690,0.000278
925.829502,0.000876
927.758313,0.000169
929.687125,-0.000431
931.615936,0.001001
933.544748,0.001827
935.473559,0.000049
937.402371,-0.001215
939.331182,-0.000627
941.259994,0.000289
943.188805,0.000796
945.117617,0.000845
947.046428,0.000640
948.975240,0.000318
950.904051,0.000103
952.832862,-0.000020
954.761674,-0.000008
956.690485,0.000174
958.619297,0.000227
960.548108,0.000290
962.476920,0.000358
964.405731,0.000107
966.334543,-0.000058
968.263354,0.000210
970.192166,0.000234
972.120977,-0.000075
974.049789,-0.000089
975.978600,-0.000019
977.907411,0.000016
979.836223,0.000153
981.765034,0.000064
983.693846,-0.000083
985.622657,0.000006
987.551469,0.000083
989.480280,0.000085
991.409092,0.000120
993.337903,0.000133
995.266715,0.000120
997.195526,0.000082
999.124338,0.000037
1001.053149,0.000022
1002.981960,0.000038
1004.910772,0.000037
1006.839583,-0.000021
1008.768395,-0.000033
1010.697206,-0.000019
1012.626018,-0.000113
1014.554829,-0.000115
1016.483641,-0.000015
1018.412452,-0.000073
1020.341264,-0.000168
1022.270075,-0.000119
1024.198887,0.000065
1026.127698,0.000237
1028.056509,0.000232
1029.985321,0.000255
1031.914132,0.000419
1033.842944,0.000515
1035.771755,0.000601
1037.700567,0.000721
1039.629378,0.000787
1041.558190,0.000806
1043.487001,0.000701
1045.415813,0.000602
1047.344624,0.000626
1049.273436,0.000583
1051.202247,0.000437
1053.131058,0.000246
1055.059870,0.000106
1056.988681,0.000065
1058.917493,0.000049
1060.846304,-0.000004
1062.775116,-0.000052
1064.703927,-0.000052
1066.632739,0.000001
1068.561550,0.000008
1070.490362,-0.000050
1072.419173,-0.000070
1074.347985,-0.000052
1076.276796,-0.000038
1078.205607,-0.000048
1080.134419,-0.000075
1082.063230,-0.000053
1083.992042,0.000002
1085.920853,0.000008
1087.849665,-0.000014
1089.778476,-0.000024
1091.707288,-0.000005
1093.636099,0.000015
1095.564911,0.000009
1097.493722,0.000054
1099.422534,0.000097
1101.351345,0.000036
1103.280156,-0.000016
1105.208968,-0.000011
1107.137779,-0.000015
1109.066591,0.000012
1110.995402,0.000022
1112.924214,-0.000047
1114.853025,-0.000087
1116.781837,-0.000066
1118.710648,-0.000056
1120.639460,-0.000054
1122.568271,-0.000049
1124.497083,-0.000086
1126.425894,-0.000094
1128.354706,-0.000016
1130.283517,0.000004
1132.212328,-0.000087
1134.141140,-0.000158
1136.069951,-0.000173
1137.998763,-0.000139
1139.927574,-0.000094
1141.856386,-0.000135
1143.785197,-0.000195
1145.714009,-0.000196
1147.642820,-0.000181
1149.571632,-0.000125
1151.500443,-0.000067
1153.429255,-0.000065
1155.358066,-0.000053
1157.286877,0.000010
1159.215689,0.000098
1161.144500,0.000137
1163.073312,0.000120
1165.002123,0.000135
1166.930935,0.000164
1168.859746,0.000177
1170.788558,0.000195
1172.717369,0.000155
1174.646181,0.000140
1176.574992,0.000227
1178.503804,0.000251
1180.432615,0.000249
1182.361426,0.000282
1184.290238,0.000270
1186.219049,0.000280
1188.147861,0.000338
1190.076672,0.000399
1192.005484,0.000454
1193.934295,0.000474
1195.863107,0.000457
1197.791918,0.000433
1199.720730,0.000394
1201.649541,0.000390
1203.578353,0.000435
1205.507164,0.000453
1207.435975,0.000471
1209.364787,0.000500
1211.293598,0.000527
1213.222410,0.000577
1215.151221,0.000704
1217.080033,0.000883
1219.008844,0.000977
1220.937656,0.001085
1222.866467,0.001266
1224.795279,0.001458
1226.724090,0.001764
1228.652902,0.002117
1230.581713,0.002494
1232.510524,0.002984
1234.439336,0.003497
1236.368147,0.004122
1238.296959,0.004930
1240.225770,0.005710
1242.154582,0.006599
1244.083393,0.007651
1246.012205,0.008685
1247.941016,0.009758
1249.869828,0.010718
1251.798639,0.011371
1253.727451,0.011211
1255.656262,0.010391
1257.585073,0.009737
1259.513885,0.009463
1261.442696,0.011216
1263.371508,0.013609
1265.300319,0.012502
1267.229131,0.010714
1269.157942,0.011516
1271.086754,0.012660
1273.015565,0.012960
1274.944377,0.012698
1276.873188,0.011970
1278.802000,0.011207
1280.730811,0.010596
1282.659622,0.009967
1284.588434,0.009265
1286.517245,0.008722
1288.446057,0.008263
1290.374868,0.007893
1292.303680,0.007671
1294.232491,0.007448
1296.161303,0.007388
1298.090114,0.007456
1300.018926,0.007484
1301.947737,0.007545
1303.876549,0.007600
1305.805360,0.007590
1307.734172,0.007635
1309.662983,0.007697
1311.591794,0.007524
1313.520606,0.007217
1315.449417,0.006902
1317.378229,0.006523
1319.307040,0.006137
1321.235852,0.005789
1323.164663,0.005703
1325.093475,0.005629
1327.022286,0.005050
1328.951098,0.004454
1330.879909,0.004162
1332.808721,0.003846
1334.737532,0.003529
1336.666343,0.003163
1338.595155,0.002750
1340.523966,0.002570
1342.452778,0.002451
1344.381589,0.002183
1346.310401,0.001882
1348.239212,0.001549
1350.168024,0.001242
1352.096835,0.001018
1354.025647,0.000835
1355.954458,0.000753
1357.883270,0.000628
1359.812081,0.000208
1361.740892,-0.000313
1363.669704,-0.000255
1365.598515,0.000150
1367.527327,0.000139
1369.456138,0.000108
1371.384950,0.000063
1373.313761,-0.000369
1375.242573,-0.000352
1377.171384,0.000150
1379.100196,0.000334
1381.029007,0.000363
1382.957819,0.000410
1384.886630,0.000109
1386.815441,-0.000368
1388.744253,-0.000168
1390.673064,0.000311
1392.601876,-0.000093
1394.530687,-0.000718
1396.459499,-0.000645
1398.388310,-0.000521
1400.317122,-0.000072
1402.245933,0.000418
1404.174745,0.000215
1406.103556,0.000283
1408.032368,0.000682
1409.961179,0.000750
1411.889990,0.000744
1413.818802,0.000796
1415.747613,0.000400
1417.676425,-0.000860
1419.605236,-0.001156
1421.534048,0.000048
1423.462859,0.000519
1425.391671,0.000592
1427.320482,0.000729
1429.249294,0.000366
1431.178105,0.000417
1433.106917,0.000670
1435.035728,-0.000420
1436.964539,-0.001192
1438.893351,0.000099
1440.822162,0.000972
1442.750974,0.001043
1444.679785,0.000959
1446.608597,0.000414
1448.537408,0.000310
1450.466220,0.000704
1452.395031,0.000597
1454.323843,-0.000634
1456.252654,-0.002989
1458.181466,-0.002891
1460.110277,-0.000378
1462.039089,0.000477
1463.967900,-0.000349
1465.896711,-0.000364
1467.825523,0.000503
1469.754334,-0.000125
1471.683146,-0.001995
1473.611957,-0.002032
1475.540769,-0.000702
1477.469580,0.000457
1479.398392,0.001144
1481.327203,0.001377
1483.256015,0.001552
1485.184826,0.001317
1487.113638,0.000394
1489.042449,-0.000373
1490.971260,0.000216
1492.900072,0.001288
1494.828883,0.000867
1496.757695,-0.000126
1498.686506,0.000309
1500.615318,0.001367
1502.544129,0.001647
1504.472941,-0.000461
1506.401752,-0.003395
1508.330564,-0.001854
1510.259375,0.000569
1512.188187,0.001449
1514.116998,0.001346
1516.045809,0.000497
1517.974621,0.000042
1519.903432,-0.000622
1521.832244,-0.001115
1523.761055,-0.000058
1525.689867,0.000641
1527.618678,0.000991
1529.547490,0.001682
1531.476301,0.001020
1533.405113,-0.000030
1535.333924,0.000525
1537.262736,-0.000284
1539.191547,-0.003497
1541.120358,-0.003872
1543.049170,-0.001777
1544.977981,-0.000008
1546.906793,0.001366
1548.835604,0.001739
1550.764416,0.001810
1552.693227,0.001698
1554.622039,0.001208
1556.550850,-0.000234
1558.479662,-0.002188
1560.408473,0.001475
1562.337285,0.006543
1564.266096,0.009292
1566.194907,0.011901
1568.123719,0.014359
1570.052530,0.018300
1571.981342,0.024696
1573.910153,0.030173
1575.838965,0.036936
1577.767776,0.047899
1579.696588,0.059816
1581.625399,0.072560
1583.554211,0.086762
1585.483022,0.102458
1587.411834,0.119362
1589.340645,0.137174
1591.269456,0.155269
1593.198268,0.171713
1595.127079,0.185474
1597.055891,0.195427
1598.984702,0.201250
1600.913514,0.202295
1602.842325,0.198722
1604.771137,0.191954
1606.699948,0.181355
1608.628760,0.168052
1610.557571,0.151746
1612.486383,0.134657
1614.415194,0.116289
1616.344005,0.098435
1618.272817,0.113242
1620.201628,0.159221
1622.130440,0.207591
1624.059251,0.244090
1625.988063,0.264219
1627.916874,0.272084
1629.845686,0.267772
1631.774497,0.250573
1633.703309,0.223647
1635.632120,0.186651
1637.560932,0.152828
1639.489743,0.125927
1641.418555,0.096767
1643.347366,0.070123
1645.276177,0.047950
1647.204989,0.028750
1649.133800,0.017979
1651.062612,0.009882
1652.991423,0.001273
1654.920235,0.000623
1656.849046,0.002577
1658.777858,0.002470
1660.706669,0.001390
1662.635481,0.000398
1664.564292,0.000726
1666.493104,0.000852
1668.421915,-0.000682
1670.350726,-0.000884
1672.279538,0.000298
1674.208349,0.000441
1676.137161,0.001257
1678.065972,0.003074
1679.994784,0.003868
1681.923595,0.002978
1683.852407,0.001712
1685.781218,0.003452
1687.710030,0.005604
1689.638841,0.005842
1691.567653,0.005894
1693.496464,0.004598
1695.425275,0.003193
1697.354087,0.005457
1699.282898,0.005242
1701.211710,0.002495
1703.140521,0.003400
1705.069333,0.004990
1706.998144,0.006651
1708.926956,0.008969
1710.855767,0.010495
1712.784579,0.010463
1714.713390,0.009050
1716.642202,0.007426
1718.571013,0.007532
1720.499824,0.008924
1722.428636,0.009234
1724.357447,0.008565
1726.286259,0.008026
1728.215070,0.007056
1730.143882,0.005985
1732.072693,0.004479
1734.001505,0.003067
1735.930316,0.004478
1737.859128,0.005658
1739.787939,0.005514
1741.716751,0.005964
1743.645562,0.006407
1745.574373,0.006137
1747.503185,0.005514
1749.431996,0.004808
1751.360808,0.005021
1753.289619,0.006079
1755.218431,0.006262
1757.147242,0.005873
1759.076054,0.005607
1761.004865,0.004569
1762.933677,0.003772
1764.862488,0.003540
1766.791300,0.002443
1768.720111,0.001117
1770.648922,-0.000183
1772.577734,-0.000984
1774.506545,-0.000100
1776.435357,0.000794
1778.364168,0.000781
1780.292980,0.000593
1782.221791,0.000683
1784.150603,0.000731
1786.079414,0.000804
1788.008226,0.000958
1789.937037,0.000234
1791.865849,-0.000800
1793.794660,-0.000371
1795.723471,0.000500
1797.652283,0.000550
1799.581094,0.000229
1801.509906,0.000297
1803.438717,0.000774
1805.367529,0.001123
1807.296340,0.001131
1809.225152,0.000889
1811.153963,0.000792
1813.082775,0.001080
1815.011586,0.001334
1816.940398,0.001355
1818.869209,0.001359
1820.798021,0.001408
1822.726832,0.001120
1824.655643,0.000738
1826.584455,0.000778
1828.513266,0.000548
1830.442078,0.000533
1832.370889,0.001390
1834.299701,0.001876
1836.228512,0.001861
1838.157324,0.001981
1840.086135,0.002057
1842.014947,0.001523
1843.943758,0.000802
1845.872570,0.001204
1847.801381,0.001968
1849.730192,0.002249
1851.659004,0.002383
1853.587815,0.002399
1855.516627,0.002338
1857.445438,0.002223
1859.374250,0.002085
1861.303061,0.001935
1863.231873,0.001669
1865.160684,0.001167
1867.089496,0.000274
1869.018307,-0.000250
1870.947119,0.000153
1872.875930,0.000939
1874.804741,0.001606
1876.733553,0.001374
1878.662364,0.000694
1880.591176,0.000722
1882.519987,0.001041
1884.448799,0.001313
1886.377610,0.001577
1888.306422,0.001547
1890.235233,0.001703
1892.164045,0.002181
1894.092856,0.002442
1896.021668,0.002640
1897.950479,0.002910
1899.879290,0.003035
1901.808102,0.003040
1903.736913,0.003025
1905.665725,0.002939
1907.594536,0.002774
1909.523348,0.002677
1911.452159,0.002629
1913.380971,0.002536
1915.309782,0.002190
1917.238594,0.001617
1919.167405,0.001480
1921.096217,0.001567
1923.025028,0.001392
1924.953839,0.001382
1926.882651,0.001436
1928.811462,0.001271
1930.740274,0.001093
1932.669085,0.000962
1934.597897,0.000808
1936.526708,0.000637
1938.455520,0.000506
1940.384331,0.000225
1942.313143,-0.000102
1944.241954,-0.000046
1946.170766,0.000128
1948.099577,0.000160
1950.028388,0.000176
1951.957200,0.000164
1953.886011,0.000116
1955.814823,0.000099
1957.743634,0.000130
1959.672446,0.000126
1961.601257,0.000091
1963.530069,0.000036
1965.458880,-0.000089
1967.387692,-0.000138
1969.316503,-0.000082
1971.245315,-0.000040
1973.174126,0.000020
1975.102938,0.000077
1977.031749,0.000085
1978.960560,0.000090
1980.889372,0.000096
1982.818183,0.000094
1984.746995,0.000066
1986.675806,0.000019
1988.604618,-0.000038
1990.533429,-0.000178
1992.462241,-0.000233
1994.391052,-0.000067
1996.319864,0.000045
1998.248675,0.000034
2000.177487,0.000047
2002.106298,0.000025
2004.035109,-0.000025
2005.963921,-0.000012
2007.892732,0.000020
2009.821544,0.000012
2011.750355,-0.000017
2013.679167,-0.000053
2015.607978,-0.000111
2017.536790,-0.000132
2019.465601,-0.000088
2021.394413,-0.000071
2023.323224,-0.000068
2025.252036,-0.000042
2027.180847,-0.000050
2029.109658,-0.000064
2031.038470,-0.000074
2032.967281,-0.000075
2034.896093,-0.000048
2036.824904,-0.000080
2038.753716,-0.000124
2040.682527,-0.000110
2042.611339,-0.000100
2044.540150,-0.000086
2046.468962,-0.000067
2048.397773,-0.000094
2050.326585,-0.000112
2052.255396,-0.000080
2054.184207,-0.000079
2056.113019,-0.000080
2058.041830,-0.000048
2059.970642,-0.000060
2061.899453,-0.000096
2063.828265,-0.000138
2065.757076,-0.000142
2067.685888,-0.000062
2069.614699,-0.000032
2071.543511,-0.000057
2073.472322,-0.000080
2075.401134,-0.000134
2077.329945,-0.000152
2079.258756,-0.000116
2081.187568,-0.000070
2083.116379,-0.000041
2085.045191,-0.000043
2086.974002,-0.000042
2088.902814,-0.000042
2090.831625,-0.000081
2092.760437,-0.000095
2094.689248,-0.000055
2096.618060,-0.000062
2098.546871,-0.000099
2100.475683,-0.000081
2102.404494,-0.000025
2104.333305,-0.000005
2106.262117,-0.000026
2108.190928,-0.000005
2110.119740,0.000028
2112.048551,0.000027
2113.977363,0.000032
2115.906174,0.000032
2117.834986,0.000044
2119.763797,0.000073
2121.692609,0.000052
2123.621420,0.000004
2125.550232,0.000000
2127.479043,-0.000002
2129.407854,-0.000032
2131.336666,-0.000047
2133.265477,-0.000082
2135.194289,-0.000132
2137.123100,-0.000142
2139.051912,-0.000146
2140.980723,-0.000160
2142.909535,-0.000158
2144.838346,-0.000126
2146.767158,-0.000124
2148.695969,-0.000153
2150.624781,-0.000117
2152.553592,-0.000075
2154.482404,-0.000067
2156.411215,-0.000021
2158.340026,-0.000002
2160.268838,-0.000035
2162.197649,-0.000028
2164.126461,0.000009
2166.055272,0.000037
2167.984084,0.000073
2169.912895,0.000133
2171.841707,0.000211
2173.770518,0.000252
2175.699330,0.000260
2177.628141,0.000284
2179.556953,0.000302
2181.485764,0.000309
2183.414575,0.000347
2185.343387,0.000410
2187.272198,0.000508
2189.201010,0.000671
2191.129821,0.000855
2193.058633,0.001000
2194.987444,0.001093
2196.916256,0.001193
2198.845067,0.001347
2200.773879,0.001501
2202.702690,0.001628
2204.631502,0.001750
2206.560313,0.001860
2208.489124,0.001951
2210.417936,0.002003
2212.346747,0.001993
2214.275559,0.001893
2216.204370,0.001694
2218.133182,0.001439
2220.061993,0.001104
2221.990805,0.000763
2223.919616,0.000651
2225.848428,0.000889
2227.777239,0.001391
2229.706051,0.001895
2231.634862,0.002258
2233.563673,0.002518
2235.492485,0.002646
2237.421296,0.002660
2239.350108,0.002588
2241.278919,0.002365
2243.207731,0.002020
2245.136542,0.001659
2247.065354,0.001331
2248.994165,0.000993
2250.922977,0.000658
2252.851788,0.000392
2254.780600,0.000199
2256.709411,0.000050
2258.638222,-0.000069
2260.567034,-0.000102
2262.495845,-0.000047
2264.424657,-0.000028
2266.353468,-0.000037
2268.282280,-0.000044
2270.211091,-0.000048
2272.139903,-0.000035
2274.068714,-0.000038
2275.997526,-0.000002
2277.926337,0.000069
2279.855149,0.000057
2281.783960,0.000029
2283.712771,0.000079
2285.641583,0.000116
2287.570394,0.000057
2289.499206,-0.000031
2291.428017,-0.000013
2293.356829,0.000030
2295.285640,0.000065
2297.214452,0.000054
2299.143263,-0.000004
2301.072075,-0.000030
2303.000886,-0.000052
2304.929698,-0.000118
2306.858509,-0.000194
2308.787320,-0.000303
2310.716132,-0.000472
2312.644943,-0.000353
2314.573755,-0.000283
2316.502566,-0.000280
2318.431378,-0.000295
2320.360189,-0.000292
2322.289001,-0.000270
2324.217812,-0.000224
2326.146624,-0.000177
2328.075435,-0.000127
2330.004247,-0.000004
2331.933058,0.000198
2333.861870,0.000172
2335.790681,0.000179
2337.719492,0.000286
2339.648304,0.000458
2341.577115,0.000767
2343.505927,0.001312
2345.434738,0.002147
2347.363550,0.003171
2349.292361,0.003582
2351.221173,0.002865
2353.149984,0.001723
2355.078796,0.000891
2357.007607,0.000378
2358.936419,0.000139
2360.865230,0.000182
2362.794041,0.000460
2364.722853,0.000086
2366.651664,-0.000116
2368.580476,-0.000108
2370.509287,0.000025
2372.438099,0.000258
2374.366910,0.000498
2376.295722,0.000680
2378.224533,0.000766
2380.153345,0.000663
2382.082156,0.000369
2384.010968,-0.000094
2385.939779,-0.000025
2387.868590,-0.000012
2389.797402,-0.000034
2391.726213,-0.000037
2393.655025,-0.000007
2395.583836,-0.000018
2397.512648,-0.000034
2399.441459,0.000018
2401.370271,0.000022
2403.299082,-0.000007
2405.227894,0.000033
2407.156705,0.000029
2409.085517,0.000021
2411.014328,0.000063
2412.943139,0.000028
2414.871951,0.000004
2416.800762,0.000035
2418.729574,0.000003
2420.658385,-0.000034
2422.587197,-0.000005
2424.516008,0.000004
2426.444820,-0.000020
2428.373631,-0.000018
2430.302443,-0.000018
2432.231254,-0.000030
2434.160066,0.000004
2436.088877,0.000043
2438.017688,0.000023
2439.946500,0.000006
2441.875311,0.000012
2443.804123,-0.000007
2445.732934,-0.000027
2447.661746,-0.000039
2449.590557,-0.000046
2451.519369,-0.000025
2453.448180,0.000006
2455.376992,0.000021
2457.305803,0.000042
2459.234615,0.000052
2461.163426,0.000001
2463.092237,-0.000024
2465.021049,0.000043
2466.949860,0.000061
2468.878672,0.000017
2470.807483,0.000028
2472.736295,0.000063
2474.665106,0.000084
2476.593918,0.000105
2478.522729,0.000085
2480.451541,0.000054
2482.380352,0.000091
2484.309164,0.000138
2486.237975,0.000122
2488.166786,0.000077
2490.095598,0.000096
2492.024409,0.000174
2493.953221,0.000162
2495.882032,0.000075
2497.810844,0.000051
2499.739655,0.000083
2501.668467,0.000100
2503.597278,0.000079
2505.526090,0.000084
2507.454901,0.000149
2509.383713,0.000163
2511.312524,0.000102
2513.241336,0.000095
2515.170147,0.000106
2517.098958,0.000026
2519.027770,-0.000026
2520.956581,0.000035
2522.885393,0.000028
2524.814204,-0.000055
2526.743016,-0.000026
2528.671827,0.000014
2530.600639,-0.000046
2532.529450,-0.000076
2534.458262,-0.000074
2536.387073,-0.000071
2538.315885,-0.000034
2540.244696,-0.000032
2542.173507,-0.000062
2544.102319,-0.000079
2546.031130,-0.000077
2547.959942,-0.000047
2549.888753,-0.000020
2551.817565,-0.000021
2553.746376,-0.000032
2555.675188,-0.000029
2557.603999,-0.000041
2559.532811,-0.000077
2561.461622,-0.000088
2563.390434,-0.000111
2565.319245,-0.000144
2567.248056,-0.000102
2569.176868,-0.000038
2571.105679,-0.000029
2573.034491,-0.000033
2574.963302,-0.000037
2576.892114,-0.000058
2578.820925,-0.000080
2580.749737,-0.000104
2582.678548,-0.000107
2584.607360,-0.000075
2586.536171,-0.000073
2588.464983,-0.000055
2590.393794,-0.000026
2592.322605,-0.000084
2594.251417,-0.000148
2596.180228,-0.000146
2598.109040,-0.000106
2600.037851,-0.000068
2601.966663,-0.000090
2603.895474,-0.000119
2605.824286,-0.000068
2607.753097,-0.000011
2609.681909,-0.000039
2611.610720,-0.000064
2613.539532,-0.000031
2615.468343,-0.000028
2617.397154,-0.000035
2619.325966,0.000014
2621.254777,0.000066
2623.183589,0.000079
2625.112400,0.000066
2627.041212,0.000076
2628.970023,0.000096
2630.898835,0.000081
2632.827646,0.000076
2634.756458,0.000049
2636.685269,-0.000014
2638.614081,0.000005
2640.542892,0.000060
2642.471703,0.000055
2644.400515,0.000019
2646.329326,0.000003
2648.258138,0.000033
2650.186949,0.000044
2652.115761,-0.000005
2654.044572,-0.000040
2655.973384,-0.000039
2657.902195,-0.000039
2659.831007,-0.000017
2661.759818,0.000015
2663.688630,0.000002
2665.617441,-0.000007
2667.546253,-0.000023
2669.475064,-0.000084
2671.403875,-0.000114
2673.332687,-0.000088
2675.261498,-0.000035
2677.190310,-0.000023
2679.119121,-0.000044
2681.047933,-0.000013
2682.976744,-0.000001
2684.905556,-0.000026
2686.834367,-0.000020
2688.763179,-0.000018
2690.691990,-0.000019
2692.620802,0.000005
2694.549613,0.000001
2696.478424,-0.000050
2698.407236,-0.000045
2700.336047,0.000031
2702.264859,0.000055
2704.193670,0.000008
2706.122482,-0.000039
2708.051293,-0.000048
2709.980105,-0.000032
2711.908916,-0.000048
2713.837728,-0.000067
2715.766539,-0.000037
2717.695351,-0.000011
2719.624162,0.000022
2721.552973,0.000055
2723.481785,0.000034
2725.410596,0.000039
2727.339408,0.000059
2729.268219,0.000003
2731.197031,-0.000046
2733.125842,-0.000055
2735.054654,-0.000046
2736.983465,0.000030
2738.912277,0.000072
2740.841088,0.000004
2742.769900,-0.000039
2744.698711,-0.000044
2746.627522,-0.000059
2748.556334,-0.000051
2750.485145,-0.000051
2752.413957,-0.000035
2754.342768,0.000055
2756.271580,0.000110
2758.200391,0.000049
2760.129203,-0.000016
2762.058014,-0.000033
2763.986826,-0.000047
2765.915637,-0.000021
2767.844449,0.000005
2769.773260,-0.000023
2771.702071,-0.000035
2773.630883,-0.000018
2775.559694,0.000024
2777.488506,0.000062
2779.417317,0.000051
2781.346129,-0.000016
2783.274940,-0.000108
2785.203752,-0.000104
2787.132563,-0.000065
2789.061375,-0.000109
2790.990186,-0.000084
2792.918998,0.000002
2794.847809,-0.000030
2796.776620,-0.000076
2798.705432,-0.000008
2800.634243,0.000029
2802.563055,-0.000008
2804.491866,-0.000030
2806.420678,-0.000077
2808.349489,-0.000108
2810.278301,-0.000071
2812.207112,-0.000059
2814.135924,-0.000070
2816.064735,-0.000065
2817.993547,-0.000056
2819.922358,-0.000042
2821.851169,-0.000041
2823.779981,-0.000046
2825.708792,-0.000032
2827.637604,-0.000045
2829.566415,-0.000127
2831.495227,-0.000131
2833.424038,-0.000003
2835.352850,0.000037
2837.281661,0.000018
2839.210473,0.000072
2841.139284,0.000135
2843.068096,0.000168
2844.996907,0.000212
2846.925719,0.000274
2848.854530,0.000324
2850.783341,0.000431
2852.712153,0.000598
2854.640964,0.000741
2856.569776,0.000971
2858.498587,0.001208
2860.427399,0.001372
2862.356210,0.001754
2864.285022,0.002289
2866.213833,0.002749
2868.142645,0.003227
2870.071456,0.003799
2872.000268,0.004465
2873.929079,0.005176
2875.857890,0.005934
2877.786702,0.006791
2879.715513,0.007634
2881.644325,0.008377
2883.573136,0.009054
2885.501948,0.009629
2887.430759,0.010051
2889.359571,0.010332
2891.288382,0.010431
2893.217194,0.010252
2895.146005,0.009812
2897.074817,0.009269
2899.003628,0.008578
2900.932439,0.007733
2902.861251,0.006803
2904.790062,0.005587
2906.718874,0.005124
2908.647685,0.006966
2910.576497,0.010154
2912.505308,0.012943
2914.434120,0.014987
2916.362931,0.016164
2918.291743,0.016394
2920.220554,0.015708
2922.149366,0.014093
2924.078177,0.011833
2926.006988,0.009288
2927.935800,0.006719
2929.864611,0.004427
2931.793423,0.002645
2933.722234,0.001404
2935.651046,0.000630
2937.579857,0.000219
2939.508669,0.000036
2941.437480,-0.000032
2943.366292,-0.000048
2945.295103,-0.000031
2947.223915,-0.000041
2949.152726,-0.000064
2951.081537,-0.000037
2953.010349,-0.000006
2954.939160,-0.000008
2956.867972,-0.000045
2958.796783,-0.000091
2960.725595,-0.000100
2962.654406,-0.000053
2964.583218,0.000012
2966.512029,-0.000002
2968.440841,-0.000104
2970.369652,-0.000110
2972.298464,-0.000056
2974.227275,-0.000047
2976.156086,-0.000004
2978.084898,0.000042
2980.013709,0.000044
2981.942521,0.000037
2983.871332,-0.000027
2985.800144,-0.000088
2987.728955,-0.000059
2989.657767,-0.000044
2991.586578,-0.000045
2993.515390,-0.000019
2995.444201,-0.000028
2997.373013,-0.000043
2999.301824,-0.000058
3001.230635,-0.000077
3003.159447,-0.000048
3005.088258,-0.000006
3007.017070,0.000038
3008.945881,0.000055
3010.874693,-0.000004
3012.803504,-0.000072
3014.732316,-0.000077
3016.661127,-0.000023
3018.589939,0.000008
3020.518750,0.000013
3022.447562,0.000008
3024.376373,-0.000065
3026.305185,-0.000123
3028.233996,-0.000122
3030.162807,-0.000121
3032.091619,-0.000095
3034.020430,-0.000082
3035.949242,-0.000078
3037.878053,-0.000027
3039.806865,0.000032
3041.735676,0.000055
3043.664488,0.000054
3045.593299,0.000030
3047.522111,-0.000050
3049.450922,-0.000122
3051.379734,-0.000081
3053.308545,-0.000040
3055.237356,-0.000103
3057.166168,-0.000131
3059.094979,-0.000064
3061.023791,-0.000016
3062.952602,-0.000046
3064.881414,-0.000078
3066.810225,-0.000041
3068.739037,-0.000014
3070.667848,-0.000038
3072.596660,-0.000037
3074.525471,-0.000030
3076.454283,-0.000055
3078.383094,-0.000115
3080.311905,-0.000159
3082.240717,-0.000095
3084.169528,-0.000001
3086.098340,0.000007
3088.027151,-0.000029
3089.955963,-0.000036
3091.884774,-0.000011
3093.813586,0.000007
3095.742397,0.000028
3097.671209,0.000045
3099.600020,-0.000060
3101.528832,-0.000155
3103.457643,-0.000070
3105.386454,-0.000041
3107.315266,-0.000082
3109.244077,-0.000103
3111.172889,-0.000212
3113.101700,-0.000212
3115.030512,-0.000077
3116.959323,-0.000014
3118.888135,0.000025
3120.816946,-0.000042
3122.745758,-0.000177
3124.674569,-0.000138
3126.603381,-0.000023
3128.532192,-0.000043
3130.461003,-0.000121
3132.389815,-0.000114
3134.318626,-0.000100
3136.247438,-0.000155
3138.176249,-0.000182
3140.105061,-0.000137
3142.033872,-0.000123
3143.962684,-0.000151
3145.891495,-0.000136
3147.820307,-0.000130
3149.749118,-0.000135
3151.677930,-0.000097
3153.606741,-0.000095
3155.535552,-0.000151
3157.464364,-0.000175
3159.393175,-0.000116
3161.321987,-0.000100
3163.250798,-0.000160
3165.179610,-0.000156
3167.108421,-0.000153
3169.037233,-0.000164
3170.966044,-0.000109
3172.894856,-0.000119
3174.823667,-0.000168
3176.752479,-0.000189
3178.681290,-0.000247
3180.610102,-0.000201
3182.538913,-0.000068
3184.467724,-0.000054
3186.396536,-0.000092
3188.325347,-0.000151
3190.254159,-0.000282
3192.182970,-0.000292
3194.111782,-0.000155
3196.040593,-0.000093
3197.969405,-0.000139
3199.898216,-0.000169
3201.827028,-0.000166
3203.755839,-0.000202
3205.684651,-0.000253
3207.613462,-0.000252
3209.542273,-0.000236
3211.471085,-0.000250
3213.399896,-0.000251
3215.328708,-0.000178
3217.257519,-0.000132
3219.186331,-0.000145
3221.115142,-0.000066
3223.043954,-0.000056
3224.972765,-0.000184
3226.901577,-0.000196
3228.830388,-0.000173
3230.759200,-0.000192
3232.688011,-0.000117
3234.616822,-0.000055
3236.545634,-0.000112
3238.474445,-0.000114
3240.403257,-0.000058
3242.332068,-0.000158
3244.260880,-0.000223
3246.189691,-0.000056
3248.118503,0.000088
3250.047314,0.000120
3251.976126,0.000073
3253.904937,-0.000008
3255.833749,0.000001
3257.762560,-0.000010
3259.691371,-0.000073
3261.620183,-0.000040
3263.548994,0.000088
3265.477806,0.000139
3267.406617,0.000031
3269.335429,-0.000028
3271.264240,0.000010
3273.193052,0.000014
3275.121863,-0.000003
3277.050675,-0.000023
3278.979486,0.000075
3280.908298,0.000218
3282.837109,0.000158
3284.765920,0.000100
3286.694732,0.000233
3288.623543,0.000271
3290.552355,0.000135
3292.481166,0.000027
3294.409978,-0.000061
3296.338789,-0.000039
3298.267601,0.000119
3300.196412,0.000100
3302.125224,-0.000035
3304.054035,0.000003
3305.982847,0.000170
3307.911658,0.000286
3309.840469,0.000226
3311.769281,0.000064
3313.698092,0.000042
3315.626904,0.000122
3317.555715,0.000044
3319.484527,-0.000114
3321.413338,-0.000102
3323.342150,-0.000039
3325.270961,0.000031
3327.199773,0.000113
3329.128584,0.000004
3331.057396,-0.000124
3332.986207,-0.000127
3334.915018,-0.000148
3336.843830,-0.000073
3338.772641,-0.000019
3340.701453,-0.000120
3342.630264,-0.000139
3344.559076,-0.000011
3346.487887,0.000164
3348.416699,0.000112
3350.345510,-0.000050
3352.274322,0.000034
3354.203133,0.000123
3356.131945,0.000128
3358.060756,0.000058
3359.989568,-0.000139
3361.918379,-0.000171
3363.847190,-0.000024
3365.776002,0.000010
3367.704813,-0.000099
3369.633625,-0.000052
3371.562436,-0.000009
3373.491248,-0.000187
3375.420059,-0.000179
3377.348871,-0.000088
3379.277682,-0.000106
3381.206494,-0.000064
3383.135305,-0.000004
3385.064117,0.000111
3386.992928,0.000177
3388.921739,0.000158
3390.850551,0.000149
3392.779362,0.000055
3394.708174,-0.000022
3396.636985,-0.000077
3398.565797,-0.000143
3400.494608,-0.000088
3402.423420,-0.000010
3404.352231,0.000048
3406.281043,0.000114
3408.209854,0.000142
3410.138666,0.000179
3412.067477,0.000167
3413.996288,0.000052
3415.925100,-0.000051
3417.853911,-0.000080
3419.782723,-0.000067
3421.711534,-0.000070
3423.640346,-0.000067
3425.569157,-0.000013
3427.497969,0.000052
3429.426780,0.000036
3431.355592,-0.000066
3433.284403,-0.000021
3435.213215,0.000159
3437.142026,0.000236
3439.070837,0.000223
3440.999649,0.000108
3442.928460,-0.000085
3444.857272,-0.000131
3446.786083,0.000041
3448.714895,0.000244
3450.643706,0.000290
3452.572518,0.000204
3454.501329,0.000150
3456.430141,0.000189
3458.358952,0.000123
3460.287764,0.000011
3462.216575,0.000078
3464.145386,0.000074
3466.074198,-0.000005
3468.003009,0.000101
3469.931821,0.000181
3471.860632,0.000076
3473.789444,-0.000057
3475.718255,-0.000073
3477.647067,0.000012
3479.575878,-0.000007
3481.504690,-0.000201
3483.433501,-0.000237
3485.362313,0.000011
3487.291124,0.000102
3489.219935,-0.000019
3491.148747,0.000037
3493.077558,0.000185
3495.006370,0.000109
3496.935181,-0.000038
3498.863993,0.000011
3500.792804,-0.000025
3502.721616,-0.000253
3504.650427,-0.000257
3506.579239,-0.000129
3508.508050,-0.000118
3510.436862,-0.000068
3512.365673,0.000012
3514.294484,-0.000032
3516.223296,-0.000163
3518.152107,-0.000205
3520.080919,-0.000116
3522.009730,-0.000090
3523.938542,-0.000039
3525.867353,0.000082
3527.796165,-0.000069
3529.724976,-0.000204
3531.653788,0.000011
3533.582599,0.000196
3535.511411,0.000257
3537.440222,0.000332
3539.369034,0.000420
3541.297845,0.000302
3543.226656,0.000056
3545.155468,0.000061
3547.084279,0.000252
3549.013091,0.000497
3550.941902,0.000644
3552.870714,0.000610
3554.799525,0.000769
3556.728337,0.001007
3558.657148,0.001110
3560.585960,0.001248
3562.514771,0.001397
3564.443583,0.001410
3566.372394,0.001205
3568.301205,0.001312
3570.230017,0.002014
3572.158828,0.002568
3574.087640,0.002762
3576.016451,0.002795
3577.945263,0.002637
3579.874074,0.002408
3581.802886,0.002092
3583.731697,0.001703
3585.660509,0.001351
3587.589320,0.001311
3589.518132,0.001750
3591.446943,0.001845
3593.375754,0.001394
3595.304566,0.001296
3597.233377,0.001782
3599.162189,0.002298
3601.091000,0.002609
3603.019812,0.002914
3604.948623,0.003021
3606.877435,0.002536
3608.806246,0.001927
3610.735058,0.001747
3612.663869,0.001528
3614.592681,0.001265
3616.521492,0.001151
3618.450303,0.000639
3620.379115,0.000324
3622.307926,0.000562
3624.236738,0.000665
3626.165549,0.000567
3628.094361,-0.000160
3630.023172,-0.000628
3631.951984,0.000166
3633.880795,0.000718
3635.809607,0.000840
3637.738418,0.001170
3639.667230,0.001266
3641.596041,0.000964
3643.524852,0.000544
3645.453664,-0.000109
3647.382475,-0.001018
3649.311287,-0.001692
3651.240098,-0.001376
3653.168910,-0.000058
3655.097721,0.000644
3657.026533,0.000558
3658.955344,0.001017
3660.884156,0.001494
3662.812967,0.001461
3664.741779,0.001261
3666.670590,0.000897
3668.599401,-0.000046
3670.528213,-0.001077
3672.457024,-0.000815
3674.385836,-0.000724
3676.314647,-0.001085
3678.243459,-0.000058
3680.172270,0.001028
3682.101082,0.001288
3684.029893,0.001366
3685.958705,0.001236
3687.887516,0.000618
3689.816328,0.000115
3691.745139,0.000665
3693.673951,0.001580
3695.602762,0.001996
3697.531573,0.002158
3699.460385,0.002188
3701.389196,0.001845
3703.318008,0.001667
3705.246819,0.001908
3707.175631,0.001807
3709.104442,0.001336
3711.033254,0.000915
3712.962065,0.001022
3714.890877,0.001793
3716.819688,0.002344
3718.748500,0.002369
3720.677311,0.002102
3722.606122,0.001999
3724.534934,0.002175
3726.463745,0.002103
3728.392557,0.002063
3730.321368,0.001909
3732.250180,0.001134
3734.178991,0.000596
3736.107803,0.000730
3738.036614,0.001020
3739.965426,0.001523
3741.894237,0.001751
3743.823049,0.000630
3745.751860,-0.000363
3747.680671,0.000310
3749.609483,0.000406
3751.538294,0.000145
3753.467106,0.001014
3755.395917,0.001987
3757.324729,0.002394
3759.253540,0.002384
3761.182352,0.002587
3763.111163,0.002870
3765.039975,0.002695
3766.968786,0.002597
3768.897598,0.002498
3770.826409,0.002452
3772.755220,0.002895
3774.684032,0.003166
3776.612843,0.003066
3778.541655,0.002780
3780.470466,0.002619
3782.399278,0.002896
3784.328089,0.002988
3786.256901,0.002839
3788.185712,0.002952
3790.114524,0.002959
3792.043335,0.002784
3793.972147,0.002521
3795.900958,0.001719
3797.829769,0.001316
3799.758581,0.001319
3801.687392,0.000558
3803.616204,0.000697
3805.545015,0.001372
3807.473827,0.001294
3809.402638,0.001575
3811.331450,0.001918
3813.260261,0.001810
3815.189073,0.000948
3817.117884,0.000070
3819.046696,0.000309
3820.975507,0.000065
3822.904318,0.000149
3824.833130,0.001106
3826.761941,0.001218
3828.690753,0.001200
3830.619564,0.001085
3832.548376,0.000357
3834.477187,0.000058
3836.405999,-0.000063
3838.334810,-0.000419
3840.263622,-0.000226
3842.192433,0.000379
3844.121245,0.000739
3846.050056,0.000864
3847.978867,0.000776
3849.907679,0.000334
3851.836490,-0.000556
3853.765302,-0.001602
3855.694113,-0.001315
3857.622925,-0.000132
3859.551736,0.000434
3861.480548,0.000360
3863.409359,-0.000105
3865.338171,-0.000394
3867.266982,-0.000023
3869.195794,-0.000170
3871.124605,-0.000496
3873.053417,-0.000064
3874.982228,0.000175
3876.911039,0.000509
3878.839851,0.000598
3880.768662,-0.000070
3882.697474,-0.000014
3884.626285,0.000083
3886.555097,-0.000249
3888.483908,0.000187
3890.412720,0.000335
3892.341531,-0.000057
3894.270343,0.000086
3896.199154,0.000257
3898.127966,-0.000154
3900.056777,-0.000692
3901.985588,-0.000747
3903.914400,-0.000608
3905.843211,-0.000353
3907.772023,0.000272
3909.700834,0.000728
3911.629646,0.000796
3913.558457,0.000713
3915.487269,0.000516
3917.416080,0.000346
3919.344892,0.000266
3921.273703,0.000240
3923.202515,0.000158
3925.131326,0.000059
3927.060137,0.000149
3928.988949,0.000219
3930.917760,0.000118
3932.846572,0.000119
3934.775383,0.000319
3936.704195,0.000416
3938.633006,0.000402
3940.561818,0.000425
3942.490629,0.000240
3944.419441,0.000042
3946.348252,0.000095
3948.277064,0.000068
3950.205875,-0.000019
3952.134686,-0.000019
3954.063498,0.000017
3955.992309,0.000118
3957.921121,0.000147
3959.849932,0.000009
3961.778744,-0.000091
3963.707555,-0.000013
3965.636367,0.000062
3967.565178,0.000010
3969.493990,-0.000066
3971.422801,-0.000146
3973.351613,-0.000211
3975.280424,-0.000172
3977.209235,-0.000136
3979.138047,-0.000116
3981.066858,-0.000005
3982.995670,0.000075
3984.924481,-0.000003
3986.853293,0.000001
3988.782104,0.000078
3990.710916,-0.000046
3992.639727,-0.000193
3994.568539,-0.000161
3996.497350,-0.000090
3998.426162,-0.000053
4000.354973,-0.000014
